# GMOS-N transmission curve for GG455 filter, 5mm thickness
# Columns are (1) wavelength in nm, (2) transmission.
# Data are from scans of the delivered filters for GMOS-N
# Start wavelength points are set to 0.00 for extrapolation.
# Author: Inger Jorgensen
# Created: 27 June 2002
#
# Effective wavelength for calculation of image quality
610.
#
#  Table longpassGMOS-N.tab  Thu 13:47:35 27-Jun-2002
# lambda GG455_G0305

   440.0       0.000
   441.0       0.000
   442.0       0.000
   443.0       0.000
   444.0       0.000
   445.0       0.000
   446.0       0.001
   447.0       0.002
   448.0       0.005
   449.0       0.009
   450.0       0.016
   451.0       0.027
   452.0       0.043
   453.0       0.062
   454.0       0.086
   455.0       0.114
   456.0       0.145
   457.0       0.180
   458.0       0.216
   459.0       0.253
   460.0       0.292
   461.0       0.329
   462.0       0.367
   463.0       0.403
   464.0       0.438
   465.0       0.471
   466.0       0.502
   467.0       0.532
   468.0       0.560
   469.0       0.586
   470.0       0.610
   471.0       0.633
   472.0       0.653
   473.0       0.673
   474.0       0.691
   475.0       0.708
   476.0       0.723
   477.0       0.737
   478.0       0.750
   479.0       0.762
   480.0       0.772
   481.0       0.783
   482.0       0.792
   483.0       0.801
   484.0       0.810
   485.0       0.817
   486.0       0.824
   487.0       0.831
   488.0       0.836
   489.0       0.842
   490.0       0.847
   491.0       0.852
   492.0       0.857
   493.0       0.861
   494.0       0.865
   495.0       0.869
   496.0       0.872
   497.0       0.876
   498.0       0.878
   499.0       0.882
   500.0       0.885
   501.0       0.887
   502.0       0.889
   503.0       0.892
   504.0       0.894
   505.0       0.896
   506.0       0.897
   507.0       0.900
   508.0       0.902
   509.0       0.903
   510.0       0.905
   511.0       0.906
   512.0       0.907
   513.0       0.908
   514.0       0.910
   515.0       0.911
   516.0       0.912
   517.0       0.913
   518.0       0.914
   519.0       0.915
   520.0       0.916
   521.0       0.917
   522.0       0.918
   523.0       0.918
   524.0       0.919
   525.0       0.920
   526.0       0.920
   527.0       0.920
   528.0       0.921
   529.0       0.922
   530.0       0.922
   531.0       0.923
   532.0       0.923
   533.0       0.924
   534.0       0.924
   535.0       0.924
   536.0       0.925
   537.0       0.926
   538.0       0.926
   539.0       0.926
   540.0       0.926
   541.0       0.926
   542.0       0.928
   543.0       0.928
   544.0       0.929
   545.0       0.929
   546.0       0.929
   547.0       0.930
   548.0       0.931
   549.0       0.931
   550.0       0.933
   551.0       0.932
   552.0       0.933
   553.0       0.933
   554.0       0.934
   555.0       0.935
   556.0       0.935
   557.0       0.936
   558.0       0.936
   559.0       0.936
   560.0       0.937
   561.0       0.937
   562.0       0.937
   563.0       0.938
   564.0       0.938
   565.0       0.938
   566.0       0.937
   567.0       0.937
   568.0       0.937
   569.0       0.937
   570.0       0.937
   571.0       0.937
   572.0       0.937
   573.0       0.936
   574.0       0.936
   575.0       0.935
   576.0       0.936
   577.0       0.935
   578.0       0.934
   579.0       0.933
   580.0       0.932
   581.0       0.932
   582.0       0.931
   583.0       0.930
   584.0       0.929
   585.0       0.929
   586.0       0.927
   587.0       0.927
   588.0       0.925
   589.0       0.925
   590.0       0.924
   591.0       0.923
   592.0       0.923
   593.0       0.922
   594.0       0.922
   595.0       0.921
   596.0       0.922
   597.0       0.921
   598.0       0.922
   599.0       0.921
   600.0       0.921
   601.0       0.921
   602.0       0.921
   603.0       0.921
   604.0       0.922
   605.0       0.922
   606.0       0.921
   607.0       0.922
   608.0       0.922
   609.0       0.921
   610.0       0.922
   611.0       0.921
   612.0       0.921
   613.0       0.921
   614.0       0.921
   615.0       0.921
   616.0       0.921
   617.0       0.921
   618.0       0.921
   619.0       0.921
   620.0       0.921
   621.0       0.922
   622.0       0.922
   623.0       0.921
   624.0       0.922
   625.0       0.922
   626.0       0.921
   627.0       0.921
   628.0       0.921
   629.0       0.921
   630.0       0.920
   631.0       0.921
   632.0       0.921
   633.0       0.920
   634.0       0.920
   635.0       0.920
   636.0       0.919
   637.0       0.919
   638.0       0.919
   639.0       0.919
   640.0       0.919
   641.0       0.918
   642.0       0.918
   643.0       0.918
   644.0       0.918
   645.0       0.918
   646.0       0.918
   647.0       0.918
   648.0       0.918
   649.0       0.919
   650.0       0.918
   651.0       0.918
   652.0       0.919
   653.0       0.919
   654.0       0.919
   655.0       0.919
   656.0       0.920
   657.0       0.920
   658.0       0.921
   659.0       0.921
   660.0       0.922
   661.0       0.923
   662.0       0.923
   663.0       0.923
   664.0       0.924
   665.0       0.925
   666.0       0.926
   667.0       0.927
   668.0       0.928
   669.0       0.928
   670.0       0.929
   671.0       0.929
   672.0       0.931
   673.0       0.932
   674.0       0.932
   675.0       0.934
   676.0       0.934
   677.0       0.935
   678.0       0.936
   679.0       0.937
   680.0       0.939
   681.0       0.939
   682.0       0.940
   683.0       0.941
   684.0       0.942
   685.0       0.943
   686.0       0.945
   687.0       0.945
   688.0       0.946
   689.0       0.947
   690.0       0.948
   691.0       0.948
   692.0       0.949
   693.0       0.950
   694.0       0.951
   695.0       0.951
   696.0       0.952
   697.0       0.953
   698.0       0.953
   699.0       0.954
   700.0       0.955
   701.0       0.955
   702.0       0.955
   703.0       0.956
   704.0       0.957
   705.0       0.958
   706.0       0.958
   707.0       0.958
   708.0       0.959
   709.0       0.959
   710.0       0.960
   711.0       0.960
   712.0       0.960
   713.0       0.961
   714.0       0.961
   715.0       0.961
   716.0       0.961
   717.0       0.961
   718.0       0.962
   719.0       0.962
   720.0       0.963
   721.0       0.963
   722.0       0.963
   723.0       0.964
   724.0       0.964
   725.0       0.964
   726.0       0.964
   727.0       0.964
   728.0       0.965
   729.0       0.965
   730.0       0.965
   731.0       0.965
   732.0       0.965
   733.0       0.966
   734.0       0.966
   735.0       0.967
   736.0       0.966
   737.0       0.966
   738.0       0.966
   739.0       0.967
   740.0       0.967
   741.0       0.967
   742.0       0.967
   743.0       0.967
   744.0       0.967
   745.0       0.967
   746.0       0.968
   747.0       0.968
   748.0       0.968
   749.0       0.968
   750.0       0.968
   751.0       0.968
   752.0       0.968
   753.0       0.969
   754.0       0.969
   755.0       0.969
   756.0       0.969
   757.0       0.969
   758.0       0.968
   759.0       0.970
   760.0       0.970
   761.0       0.970
   762.0       0.970
   763.0       0.969
   764.0       0.970
   765.0       0.970
   766.0       0.970
   767.0       0.970
   768.0       0.970
   769.0       0.971
   770.0       0.970
   771.0       0.970
   772.0       0.971
   773.0       0.970
   774.0       0.971
   775.0       0.971
   776.0       0.971
   777.0       0.971
   778.0       0.970
   779.0       0.971
   780.0       0.972
   781.0       0.971
   782.0       0.971
   783.0       0.971
   784.0       0.971
   785.0       0.972
   786.0       0.971
   787.0       0.972
   788.0       0.972
   789.0       0.972
   790.0       0.972
   791.0       0.972
   792.0       0.973
   793.0       0.972
   794.0       0.972
   795.0       0.973
   796.0       0.972
   797.0       0.973
   798.0       0.972
   799.0       0.966
   800.0       0.965
   801.0       0.965
   802.0       0.966
   803.0       0.966
   804.0       0.966
   805.0       0.966
   806.0       0.966
   807.0       0.966
   808.0       0.966
   809.0       0.966
   810.0       0.966
   811.0       0.966
   812.0       0.966
   813.0       0.966
   814.0       0.966
   815.0       0.966
   816.0       0.966
   817.0       0.966
   818.0       0.967
   819.0       0.967
   820.0       0.966
   821.0       0.966
   822.0       0.967
   823.0       0.967
   824.0       0.967
   825.0       0.967
   826.0       0.967
   827.0       0.967
   828.0       0.967
   829.0       0.967
   830.0       0.967
   831.0       0.967
   832.0       0.967
   833.0       0.967
   834.0       0.967
   835.0       0.967
   836.0       0.967
   837.0       0.967
   838.0       0.967
   839.0       0.967
   840.0       0.968
   841.0       0.967
   842.0       0.967
   843.0       0.967
   844.0       0.968
   845.0       0.967
   846.0       0.967
   847.0       0.967
   848.0       0.967
   849.0       0.967
   850.0       0.967
   851.0       0.967
   852.0       0.967
   853.0       0.967
   854.0       0.967
   855.0       0.967
   856.0       0.967
   857.0       0.967
   858.0       0.967
   859.0       0.967
   860.0       0.967
   861.0       0.967
   862.0       0.967
   863.0       0.967
   864.0       0.968
   865.0       0.967
   866.0       0.967
   867.0       0.967
   868.0       0.968
   869.0       0.967
   870.0       0.967
   871.0       0.968
   872.0       0.968
   873.0       0.967
   874.0       0.967
   875.0       0.967
   876.0       0.967
   877.0       0.967
   878.0       0.967
   879.0       0.967
   880.0       0.967
   881.0       0.967
   882.0       0.967
   883.0       0.967
   884.0       0.967
   885.0       0.967
   886.0       0.967
   887.0       0.967
   888.0       0.967
   889.0       0.966
   890.0       0.966
   891.0       0.966
   892.0       0.966
   893.0       0.966
   894.0       0.966
   895.0       0.966
   896.0       0.966
   897.0       0.966
   898.0       0.966
   899.0       0.966
   900.0       0.966
   901.0       0.966
   902.0       0.965
   903.0       0.965
   904.0       0.966
   905.0       0.965
   906.0       0.966
   907.0       0.965
   908.0       0.965
   909.0       0.965
   910.0       0.965
   911.0       0.965
   912.0       0.965
   913.0       0.965
   914.0       0.965
   915.0       0.964
   916.0       0.964
   917.0       0.964
   918.0       0.964
   919.0       0.964
   920.0       0.964
   921.0       0.964
   922.0       0.964
   923.0       0.963
   924.0       0.963
   925.0       0.963
   926.0       0.963
   927.0       0.963
   928.0       0.963
   929.0       0.962
   930.0       0.962
   931.0       0.962
   932.0       0.962
   933.0       0.962
   934.0       0.962
   935.0       0.962
   936.0       0.961
   937.0       0.961
   938.0       0.961
   939.0       0.962
   940.0       0.961
   941.0       0.961
   942.0       0.960
   943.0       0.961
   944.0       0.960
   945.0       0.960
   946.0       0.960
   947.0       0.960
   948.0       0.959
   949.0       0.959
   950.0       0.959
   951.0       0.959
   952.0       0.959
   953.0       0.959
   954.0       0.958
   955.0       0.958
   956.0       0.958
   957.0       0.958
   958.0       0.957
   959.0       0.958
   960.0       0.957
   961.0       0.957
   962.0       0.956
   963.0       0.957
   964.0       0.956
   965.0       0.956
   966.0       0.956
   967.0       0.956
   968.0       0.955
   969.0       0.955
   970.0       0.955
   971.0       0.955
   972.0       0.955
   973.0       0.955
   974.0       0.954
   975.0       0.954
   976.0       0.953
   977.0       0.954
   978.0       0.953
   979.0       0.953
   980.0       0.953
   981.0       0.953
   982.0       0.952
   983.0       0.952
   984.0       0.952
   985.0       0.952
   986.0       0.952
   987.0       0.951
   988.0       0.951
   989.0       0.950
   990.0       0.950
   991.0       0.950
   992.0       0.950
   993.0       0.950
   994.0       0.949
   995.0       0.948
   996.0       0.948
   997.0       0.948
   998.0       0.948
   999.0       0.948
  1000.0       0.947
  1001.0       0.947
  1002.0       0.946
  1003.0       0.946
  1004.0       0.947
  1005.0       0.946
  1006.0       0.946
  1007.0       0.945
  1008.0       0.945
  1009.0       0.944
  1010.0       0.945
  1011.0       0.945
  1012.0       0.944
  1013.0       0.944
  1014.0       0.944
  1015.0       0.943
  1016.0       0.942
  1017.0       0.942
  1018.0       0.943
  1019.0       0.942
  1020.0       0.942
  1021.0       0.941
  1022.0       0.941
  1023.0       0.940
  1024.0       0.940
  1025.0       0.940
  1026.0       0.940
  1027.0       0.940
  1028.0       0.939
  1029.0       0.939
  1030.0       0.938
  1031.0       0.938
  1032.0       0.938
  1033.0       0.938
  1034.0       0.937
  1035.0       0.936
  1036.0       0.936
  1037.0       0.936
  1038.0       0.936
  1039.0       0.936
  1040.0       0.935
  1041.0       0.935
  1042.0       0.934
  1043.0       0.934
  1044.0       0.933
  1045.0       0.933
  1046.0       0.933
  1047.0       0.933
  1048.0       0.932
  1049.0       0.931
  1050.0       0.931
  1051.0       0.931
  1052.0       0.931
  1053.0       0.930
  1054.0       0.930
  1055.0       0.929
  1056.0       0.929
  1057.0       0.929
  1058.0       0.929
  1059.0       0.928
  1060.0       0.928
  1061.0       0.927
  1062.0       0.927
  1063.0       0.926
  1064.0       0.926
  1065.0       0.926
  1066.0       0.925
  1067.0       0.925
  1068.0       0.924
  1069.0       0.924
  1070.0       0.924
  1071.0       0.924
  1072.0       0.923
  1073.0       0.923
  1074.0       0.922
  1075.0       0.922
  1076.0       0.921
  1077.0       0.921
  1078.0       0.921
  1079.0       0.920
  1080.0       0.920
  1081.0       0.919
  1082.0       0.919
  1083.0       0.918
  1084.0       0.918
  1085.0       0.918
  1086.0       0.917
  1087.0       0.917
  1088.0       0.916
  1089.0       0.916
  1090.0       0.915
  1091.0       0.915
  1092.0       0.915
  1093.0       0.914
  1094.0       0.913
  1095.0       0.913
  1096.0       0.913
  1097.0       0.912
  1098.0       0.912
  1099.0       0.912
  1100.0       0.911
