#ED451-W  4%H short  1.5464-1.6096um
#Cuton:  1547.34
#Cutoff: 1609.71
#
# Commented out the first few nm of the curve as it contains
# negative transmission values. mdillman
#
#  wl     trans at 50K 
# (nm)         (%)     
#----------------------
#1500.00  -0.003158407
#1500.25  -0.003690994
#1500.50  -0.005725940
#1500.75   0.005667354
#1501.00   0.013960942
#1501.25   0.001227496
#1501.50   0.001892252
#1501.75  -0.001450644
#1502.00  -0.001031547
#1502.25  -0.004785553
#1502.50  -0.009758096
#1502.75  -0.005716086
#1503.00  -0.004971196
#1503.25   0.005962598
#1503.50   0.017471515
#1503.75  -0.001387526
#1504.00  -0.005316575
#1504.25  -0.002895307
#1504.50  -0.006084923
#1504.75  -0.011707458
#1505.00   0.000150364
#1505.25   0.012940636
#1505.50  -0.001461547
#1505.75   0.006014057
#1506.00  -0.005288246
#1506.25  -0.007143927
#1506.50  -0.004451600
#1506.75   0.010483244
#1507.00  -0.006706436
#1507.25  -0.007978725
#1507.50  -0.012644517
#1507.75  -0.014130064
#1508.00   0.023093816
#1508.25   0.007453238
#1508.50  -0.011734548
#1508.75   0.001028477
#1509.00  -0.009187425
#1509.25   0.003998644
#1509.50   0.007197721
#1509.75  -0.003331508
#1510.00   0.000994060
#1510.25  -0.002430388
#1510.50  -0.000193631
#1510.75  -0.008982688
#1511.00   0.015984569
#1511.25  -0.004662100
#1511.50   0.001018957
#1511.75  -0.008912292
#1512.00   0.001937626
#1512.25  -0.002343419
#1512.50  -0.002802758
#1512.75  -0.001748663
1512.75   0.0
1513.00   0.007888982
1513.25   0.005735496
1513.50   0.006489153
1513.75   0.002806099
1514.00   0.000887200
1514.25   0.009794485
1514.50   0.006101775
1514.75   0.014661121
1515.00   0.006158563
1515.25   0.020715093
1515.50   0.006629776
1515.75   0.009379303
1516.00   0.012154694
1516.25   0.008504673
1516.50   0.012140975
1516.75   0.014907064
1517.00   0.008776274
1517.25   0.001555794
1517.50   0.002396521
1517.75   0.009365236
1518.00   0.008979983
1518.25   0.013133655
1518.50   0.017825231
1518.75   0.006633500
1519.00   0.014535540
1519.25   0.022867635
1519.50   0.021286601
1519.75   0.007110812
1520.00   0.011807414
1520.25   0.021743180
1520.50   0.021501170
1520.75   0.019771203
1521.00   0.021647280
1521.25   0.032261863
1521.50   0.031835500
1521.75   0.029523009
1522.00   0.028266970
1522.25   0.040994916
1522.50   0.040185966
1522.75   0.033333343
1523.00   0.050245360
1523.25   0.034311436
1523.50   0.049545236
1523.75   0.049105868
1524.00   0.058289729
1524.25   0.049426850
1524.50   0.072711907
1524.75   0.062994093
1525.00   0.066969439
1525.25   0.057129312
1525.50   0.064156376
1525.75   0.075603254
1526.00   0.077553384
1526.25   0.087015539
1526.50   0.078982130
1526.75   0.101518631
1527.00   0.098464929
1527.25   0.104048699
1527.50   0.127549395
1527.75   0.124833629
1528.00   0.130246550
1528.25   0.143099710
1528.50   0.155707017
1528.75   0.157016844
1529.00   0.166140795
1529.25   0.165010735
1529.50   0.189946085
1529.75   0.230876803
1530.00   0.227228046
1530.25   0.233338371
1530.50   0.241799489
1530.75   0.264709890
1531.00   0.291228622
1531.25   0.309161425
1531.50   0.339517057
1531.75   0.356900185
1532.00   0.368205726
1532.25   0.412833005
1532.50   0.431028277
1532.75   0.460530758
1533.00   0.498046637
1533.25   0.546999157
1533.50   0.591951907
1533.75   0.607784152
1534.00   0.673089027
1534.25   0.716883481
1534.50   0.778211534
1534.75   0.824221313
1535.00   0.900734663
1535.25   0.991032183
1535.50   1.031404018
1535.75   1.137789726
1536.00   1.206948161
1536.25   1.318086624
1536.50   1.433941603
1536.75   1.545828223
1537.00   1.697874069
1537.25   1.798363209
1537.50   1.995128393
1537.75   2.119680882
1538.00   2.316947937
1538.25   2.540617704
1538.50   2.726778030
1538.75   3.012264252
1539.00   3.198629618
1539.25   3.554527760
1539.50   3.835569382
1539.75   4.159734249
1540.00   4.603944778
1540.25   4.932303429
1540.50   5.488139153
1540.75   5.858897686
1541.00   6.493859768
1541.25   7.037977219
1541.50   7.638349533
1541.75   8.526351929
1542.00   9.072748184
1542.25  10.089924810
1542.50  10.807869910
1542.75  11.873319630
1543.00  12.992717740
1543.25  13.922482490
1543.50  15.523121830
1543.75  16.491661070
1544.00  18.197631840
1544.25  19.646957400
1544.50  21.333204270
1544.75  23.159849170
1545.00  24.603050230
1545.25  27.211025240
1545.50  28.766366960
1545.75  31.168788910
1546.00  33.575759890
1546.25  35.788475040
1546.50  38.419799800
1546.75  40.263122560
1547.00  43.484386440
1547.25  45.677066800
1547.50  48.463211060
1547.75  51.215599060
1548.00  53.347362520
1548.25  56.291561130
1548.50  58.409427640
1548.75  61.429924010
1549.00  63.522899630
1549.25  65.666305540
1549.50  68.237899780
1549.75  70.014480590
1550.00  72.250968930
1550.25  73.656570430
1550.50  75.813552860
1550.75  77.536979680
1551.00  78.904861450
1551.25  80.470100400
1551.50  81.379150390
1551.75  82.745506290
1552.00  83.531600950
1552.25  84.626121520
1552.50  85.344238280
1552.75  86.163238530
1553.00  86.985092160
1553.25  87.412368770
1553.50  88.033760070
1553.75  88.327064510
1554.00  88.796295170
1554.25  89.071952820
1554.50  89.290725710
1554.75  89.613395690
1555.00  89.901313780
1555.25  90.305526730
1555.50  90.457466130
1555.75  90.502853390
1556.00  90.542129520
1556.25  90.668449400
1556.50  90.906700130
1556.75  90.745628360
1557.00  90.818038940
1557.25  90.990837100
1557.50  91.139648440
1557.75  91.333831790
1558.00  91.308868410
1558.25  91.313240050
1558.50  91.256179810
1558.75  91.370689390
1559.00  91.373710630
1559.25  91.378601070
1559.50  91.418556210
1559.75  91.496017460
1560.00  91.656738280
1560.25  91.654632570
1560.50  91.633117680
1560.75  91.641769410
1561.00  91.670898440
1561.25  91.679542540
1561.50  91.680999760
1561.75  91.770980830
1562.00  91.869575500
1562.25  91.827064510
1562.50  91.793838500
1562.75  91.736991880
1563.00  91.691467290
1563.25  91.750991820
1563.50  91.683555600
1563.75  91.695228580
1564.00  91.704566960
1564.25  91.783744810
1564.50  91.846366880
1564.75  91.775543210
1565.00  91.723632810
1565.25  91.626914980
1565.50  91.630966190
1565.75  91.558540340
1566.00  91.431648250
1566.25  91.549026490
1566.50  91.616592410
1566.75  91.668975830
1567.00  91.548652650
1567.25  91.525688170
1567.50  91.578804020
1567.75  91.568161010
1568.00  91.444519040
1568.25  91.271224980
1568.50  91.322158810
1568.75  91.554443360
1569.00  91.655090330
1569.25  91.567634580
1569.50  91.494873050
1569.75  91.538475040
1570.00  91.677803040
1570.25  91.617942810
1570.50  91.325119020
1570.75  90.978408810
1571.00  91.258117680
1571.25  91.749420170
1571.50  91.537147520
1571.75  91.504966740
1572.00  91.509857180
1572.25  91.712745670
1572.50  91.687957760
1572.75  91.604881290
1573.00  91.536506650
1573.25  91.581985470
1573.50  91.520187380
1573.75  91.783836360
1574.00  91.781951900
1574.25  91.823417660
1574.50  91.765319820
1574.75  91.844024660
1575.00  91.936019900
1575.25  91.914779660
1575.50  92.051681520
1575.75  92.123588560
1576.00  92.191711430
1576.25  91.937110900
1576.50  91.710182190
1576.75  92.193222050
1577.00  92.303817750
1577.25  92.607650760
1577.50  92.339721680
1577.75  92.525634770
1578.00  92.379920960
1578.25  92.049537660
1578.50  92.140800480
1578.75  92.408531190
1579.00  92.501617430
1579.25  92.686843870
1579.50  92.599403380
1579.75  92.328140260
1580.00  92.063446040
1580.25  92.610176090
1580.50  92.784980770
1580.75  92.661109920
1581.00  92.961433410
1581.25  92.995552060
1581.50  92.854446410
1581.75  92.911064150
1582.00  92.991569520
1582.25  92.855606080
1582.50  93.024322510
1582.75  93.151733400
1583.00  92.935462950
1583.25  92.745735170
1583.50  92.665466310
1583.75  92.802085880
1584.00  92.924484250
1584.25  92.940917970
1584.50  93.028915410
1584.75  93.033065800
1585.00  93.128196720
1585.25  92.938179020
1585.50  92.768066410
1585.75  92.758399960
1586.00  92.929733280
1586.25  92.892272950
1586.50  92.904678340
1586.75  93.040588380
1587.00  92.946067810
1587.25  92.557731630
1587.50  92.521636960
1587.75  92.599792480
1588.00  92.642143250
1588.25  92.334747310
1588.50  92.097076420
1588.75  92.189460750
1589.00  92.367340090
1589.25  92.442901610
1589.50  92.657402040
1589.75  92.597435000
1590.00  92.414505000
1590.25  92.348197940
1590.50  92.336814880
1590.75  92.150314330
1591.00  92.087806700
1591.25  91.961410520
1591.50  92.193367000
1591.75  91.988075260
1592.00  92.257217410
1592.25  92.768905640
1592.50  92.516174320
1592.75  91.984733580
1593.00  91.960998540
1593.25  91.946121220
1593.50  91.837570190
1593.75  91.897911070
1594.00  91.888694760
1594.25  91.978660580
1594.50  91.963539120
1594.75  91.734840390
1595.00  91.607086180
1595.25  91.412963870
1595.50  91.571830750
1595.75  91.937797550
1596.00  91.710853580
1596.25  91.579452510
1596.50  91.127426150
1596.75  91.429000850
1597.00  91.418243410
1597.25  91.090744020
1597.50  90.982162480
1597.75  90.969398500
1598.00  91.089263920
1598.25  90.861038210
1598.50  91.163009640
1598.75  91.109512330
1599.00  90.899543760
1599.25  90.449241640
1599.50  90.206893920
1599.75  90.322738650
1600.00  90.163208010
1600.25  90.488258360
1600.50  90.292999270
1600.75  90.073524480
1601.00  89.945693970
1601.25  89.729278560
1601.50  89.590583800
1601.75  88.914581300
1602.00  88.766143800
1602.25  88.557037350
1602.50  88.128425600
1602.75  87.540504460
1603.00  87.065589900
1603.25  86.725357060
1603.50  86.052467350
1603.75  85.483100890
1604.00  84.653991700
1604.25  83.772499080
1604.50  83.024002080
1604.75  82.007286070
1605.00  81.094039920
1605.25  79.766601560
1605.50  78.817070010
1605.75  77.417854310
1606.00  76.083305360
1606.25  74.654663090
1606.50  72.645881650
1606.75  71.229537960
1607.00  69.217758180
1607.25  67.788986210
1607.50  65.684326170
1607.75  63.513015750
1608.00  61.795001980
1608.25  59.308815000
1608.50  57.476894380
1608.75  55.053283690
1609.00  52.992240910
1609.25  50.700599670
1609.50  48.397415160
1609.75  46.365669250
1610.00  43.820568080
1610.25  41.983543400
1610.50  39.610961910
1610.75  37.479522710
1611.00  35.281787870
1611.25  33.221652980
1611.50  31.524684910
1611.75  29.436401370
1612.00  27.914350510
1612.25  26.015806200
1612.50  24.357444760
1612.75  22.707895280
1613.00  21.125892640
1613.25  19.904201510
1613.50  18.416984560
1613.75  17.344791410
1614.00  16.012903210
1614.25  14.807242390
1614.50  13.857995990
1614.75  12.833170890
1615.00  12.109622000
1615.25  11.130208970
1615.50  10.357100490
1615.75   9.581994057
1616.00   8.816932678
1616.25   8.276026726
1616.50   7.684557915
1616.75   7.194061756
1617.00   6.631619453
1617.25   6.169308186
1617.50   5.772933960
1617.75   5.289744377
1618.00   4.952928543
1618.25   4.597957134
1618.50   4.295624256
1618.75   3.996421099
1619.00   3.728119373
1619.25   3.474775314
1619.50   3.206009388
1619.75   2.993548393
1620.00   2.786062479
1620.25   2.592144251
1620.50   2.431532621
1620.75   2.258338928
1621.00   2.139421463
1621.25   1.980000000
1621.50   1.856083989
1621.75   1.732422233
1622.00   1.614971399
1622.25   1.563626528
1622.50   1.427746654
1622.75   1.333489776
1623.00   1.263161182
1623.25   1.176667452
1623.50   1.112786651
1623.75   1.034845591
1624.00   0.984705210
1624.25   0.922609687
1624.50   0.869848669
1624.75   0.827124596
1625.00   0.763709724
1625.25   0.723630309
1625.50   0.673582614
1625.75   0.644485593
1626.00   0.601148367
1626.25   0.554232240
1626.50   0.561807096
1626.75   0.504226983
1627.00   0.472670853
1627.25   0.453000000
1627.50   0.444108933
1627.75   0.394772887
1628.00   0.382799894
1628.25   0.357032567
1628.50   0.349044472
1628.75   0.332111567
1629.00   0.300988853
1629.25   0.297465980
1629.50   0.278775662
1629.75   0.266230226
1630.00   0.248437658
1630.25   0.237946287
1630.50   0.228000000
1630.75   0.210780323
1631.00   0.196607366
1631.25   0.180299521
1631.50   0.179165378
1631.75   0.167767733
1632.00   0.164395645
1632.25   0.165842101
1632.50   0.141977996
1632.75   0.136897728
1633.00   0.139821157
1633.25   0.125019059
1633.50   0.132754266
1633.75   0.099546112
1634.00   0.102967911
1634.25   0.120004408
1634.50   0.105637915
1634.75   0.095264770
1635.00   0.088410124
1635.25   0.085207976
1635.50   0.083626457
1635.75   0.079898976
1636.00   0.078010470
1636.25   0.081003569
1636.50   0.072713032
1636.75   0.059337791
1637.00   0.068692096
1637.25   0.064115852
1637.50   0.061777625
1637.75   0.057359248
1638.00   0.061081022
1638.25   0.048452970
1638.50   0.042098064
1638.75   0.051332753
1639.00   0.059259329
1639.25   0.044974558
1639.50   0.041906621
1639.75   0.029456532
1640.00   0.043399524
1640.25   0.020984409
1640.50   0.040486202
1640.75   0.033301231
1641.00   0.027175160
1641.25   0.032106321
1641.50   0.018712649
1641.75   0.027947757
1642.00   0.025869271
1642.25   0.031685464
1642.50   0.031629518
1642.75   0.020091835
1643.00   0.024489457
1643.25   0.021481158
1643.50   0.024185274
1643.75   0.012982727
1644.00   0.014651518
1644.25   0.021935178
1644.50   0.018681282
1644.75   0.015866367
1645.00   0.021403711
1645.25   0.015773607
1645.50   0.023514200
1645.75   0.016756024
1646.00   0.012706210
1646.25   0.014481439
1646.50   0.010310545
1646.75   0.013550755
1647.00   0.014507789
1647.25   0.014527822
1647.50   0.010272039
1647.75   0.005609496
1648.00   0.017884072
1648.25   0.004622957
1648.50   0.012144663
1648.75   0.011988249
1649.00   0.009362409
1649.25   0.015305516
1649.50   0.012023071
#1649.75  -0.000429194
#1650.00   0.022334682
1651.00   0.0
