# This file has been created from BlazeFunction matlab function.
# The first columns is the wavelength and the second column is the blaze
# function for each wavelength being the 1 at blaze wavelength, i.e.
# centre, and rops to 0.405 at FSR edge. 

300.00   0.00026505 
301.00   0.00001036 
302.00   0.00015314 
303.00   0.00041716 
304.00   0.00023793 
305.00   0.00000003 
306.00   0.00024710 
307.00   0.00048110 
308.00   0.00019739 
309.00   0.00001097 
310.00   0.00036764 
311.00   0.00053438 
312.00   0.00014626 
313.00   0.00005317 
314.00   0.00051565 
315.00   0.00057137 
316.00   0.00009000 
317.00   0.00013894 
318.00   0.00069129 
319.00   0.00058634 
320.00   0.00003768 
321.00   0.00028385 
322.00   0.00089415 
323.00   0.00057380 
324.00   0.00000372 
325.00   0.00050862 
326.00   0.00112361 
327.00   0.00052900 
328.00   0.00001102 
329.00   0.00084279 
330.00   0.00137942 
331.00   0.00044877 
332.00   0.00009735 
333.00   0.00133217 
334.00   0.00166292 
335.00   0.00033328 
336.00   0.00032916 
337.00   0.00205496 
338.00   0.00197933 
339.00   0.00019069 
340.00   0.00083475 
341.00   0.00316019 
342.00   0.00234276 
343.00   0.00005058 
344.00   0.00189466 
345.00   0.00497214 
346.00   0.00278898 
347.00   0.00001104 
348.00   0.00423562 
349.00   0.00833403 
350.00   0.00341549 
351.00   0.00044541 
352.00   0.01027897 
353.00   0.01613404 
354.00   0.00455613 
355.00   0.00334812 
356.00   0.03260349 
357.00   0.04510110 
358.00   0.00822149 
359.00   0.03364263 
360.00   0.28682666 
361.00   0.71373860 
362.00   0.99097980 
363.00   0.86328996 
364.00   0.45109467 
365.00   0.76361835 
366.00   0.99783300 
367.00   0.83621225 
368.00   0.42511199 
369.00   0.80868559 
370.00   1.00000000 
371.00   0.80868559 
372.00   0.40090964 
373.00   0.78127673 
374.00   0.99801192 
375.00   0.84887573 
376.00   0.45918604 
377.00   0.75411305 
378.00   0.99240453 
379.00   0.88389248 
380.00   0.51664371 
381.00   0.69012732 
382.00   0.97118062 
383.00   0.93609357 
384.00   0.61235440 
385.00   0.58758335 
386.00   0.91747396 
387.00   0.98441421 
388.00   0.73808033 
389.00   0.45043233 
390.00   0.81402721 
391.00   0.99833552 
392.00   0.87216103 
393.00   0.52611846 
394.00   0.65354885 
395.00   0.94401592 
396.00   0.97479983 
397.00   0.72454755 
398.00   0.45001666 
399.00   0.79950403 
400.00   0.99393786 
401.00   0.90647351 
402.00   0.59510687 
403.00   0.57471166 
404.00   0.88794269 
405.00   0.99855100 
406.00   0.83642735 
407.00   0.50354168 
408.00   0.65903264 
409.00   0.93404603 
410.00   0.98761529 
411.00   0.78707089 
412.00   0.45200945 
413.00   0.70488630 
414.00   0.95342653 
415.00   0.97908141 
416.00   0.76686003 
417.00   0.43726338 
418.00   0.68584964 
419.00   0.93995953 
420.00   0.98874857 
421.00   0.80498665 
422.00   0.48917024 
423.00   0.63640105 
424.00   0.90683325 
425.00   0.99880500 
426.00   0.86345252 
427.00   0.57222834 
428.00   0.55733492 
429.00   0.84654170 
430.00   0.99545758 
431.00   0.92927671 
432.00   0.68165327 
433.00   0.45206106 
434.00   0.75192675 
435.00   0.96164728 
436.00   0.98280627 
437.00   0.80511077 
438.00   0.51299125 
439.00   0.59150489 
440.00   0.86042944 
441.00   0.99589378 
442.00   0.93590035 
443.00   0.70821172 
444.00   0.41338947 
445.00   0.69356610 
446.00   0.92335258 
447.00   0.99902373 
448.00   0.88727213 
449.00   0.63702903 
450.00   0.45467106 
451.00   0.73355071 
452.00   0.94207348 
453.00   0.99629823 
454.00   0.87346330 
455.00   0.62461824 
456.00   0.47514055 
457.00   0.74570690 
458.00   0.94498666 
459.00   0.99648841 
460.00   0.87964448 
461.00   0.64067747 
462.00   0.44229583 
463.00   0.70812169 
464.00   0.91941023 
465.00   1.00000000 
466.00   0.91941023 
467.00   0.70812169 
468.00   0.44229583 
469.00   0.62059642 
470.00   0.85462139 
471.00   0.98744049 
472.00   0.97191880 
473.00   0.81365998 
474.00   0.56832813 
475.00   0.48493841 
476.00   0.73489386 
477.00   0.92755056 
478.00   1.00000000 
479.00   0.92755056 
480.00   0.73489386 
481.00   0.48493841 
482.00   0.58040461 
483.00   0.81193145 
484.00   0.96588547 
485.00   0.99366294 
486.00   0.88625089 
487.00   0.67810408 
488.00   0.43243305 
489.00   0.62300792 
490.00   0.84048478 
491.00   0.97621609 
492.00   0.98937284 
493.00   0.87590936 
494.00   0.67021312 
495.00   0.43121174 
496.00   0.61738895 
497.00   0.83073638 
498.00   0.96951856 
499.00   0.99434470 
500.00   0.89799443 
501.00   0.70820477 
502.00   0.47703412 
503.00   0.54476703 
504.00   0.76403636 
505.00   0.93017064 
506.00   0.99940623 
507.00   0.95280919 
508.00   0.80316337 
509.00   0.59031011 
510.00   0.45523457 
511.00   0.67440997 
512.00   0.86464538 
513.00   0.98000689 
514.00   0.99107430 
515.00   0.89497264 
516.00   0.71636417 
517.00   0.49900504 
518.00   0.52125848 
519.00   0.73094051 
520.00   0.90085764 
521.00   0.99159420 
522.00   0.98116650 
523.00   0.87213009 
524.00   0.69074743 
525.00   0.47852963 
526.00   0.54317999 
527.00   0.74505138 
528.00   0.90649582 
529.00   0.99208995 
530.00   0.98227285 
531.00   0.87931232 
532.00   0.70660848 
533.00   0.50158170 
534.00   0.50431106 
535.00   0.70319258 
536.00   0.87235503 
537.00   0.97736980 
538.00   0.99581233 
539.00   0.92367311 
540.00   0.77651727 
541.00   0.58500468 
542.00   0.43071054 
543.00   0.62489004 
544.00   0.80532083 
545.00   0.93854178 
546.00   0.99825051 
547.00   0.97230049 
548.00   0.86599580 
549.00   0.70064797 
550.00   0.50784963 
551.00   0.47477205 
552.00   0.66282502 
553.00   0.83161560 
554.00   0.95131623 
555.00   0.99958966 
556.00   0.96719559 
557.00   0.86034853 
558.00   0.69912978 
559.00   0.51242350 
560.00   0.48122035 
561.00   0.66326454 
562.00   0.82718816 
563.00   0.94583458 
564.00   0.99846268 
565.00   0.97562875 
566.00   0.88144725 
567.00   0.73260322 
568.00   0.55439081 
569.00   0.43609383 
570.00   0.61235440 
571.00   0.77915175 
572.00   0.91117895 
573.00   0.98710817 
574.00   0.99425378 
575.00   0.93140776 
576.00   0.80911182 
577.00   0.64729504 
578.00   0.47089136 
579.00   0.51353720 
580.00   0.68317603 
581.00   0.83415386 
582.00   0.94439527 
583.00   0.99697438 
584.00   0.98361561 
585.00   0.90643309 
586.00   0.77748471 
587.00   0.61624987 
588.00   0.44564361 
589.00   0.53824747 
590.00   0.70121860 
591.00   0.84436021 
592.00   0.94798252 
593.00   0.99717358 
594.00   0.98468891 
595.00   0.91237658 
596.00   0.79081248 
597.00   0.63722923 
598.00   0.47220981 
599.00   0.49862080 
600.00   0.65771718 
601.00   0.80366757 
602.00   0.91806342 
603.00   0.98571152 
604.00   0.99736324 
605.00   0.95140759 
606.00   0.85416825 
607.00   0.71874117 
608.00   0.56262037 
609.00   0.40461355 
610.00   0.55567648 
611.00   0.70704016 
612.00   0.84048478 
613.00   0.94001763 
614.00   0.99318816 
615.00   0.99318816 
616.00   0.94001763 
617.00   0.84048478 
618.00   0.70704016 
619.00   0.55567648 
620.00   0.40330742 
621.00   0.55050481 
622.00   0.69699422 
623.00   0.82789364 
624.00   0.92866195 
625.00   0.98760621 
626.00   0.99771431 
627.00   0.95777204 
628.00   0.87255764 
629.00   0.75207796 
630.00   0.60998769 
631.00   0.46148259 
632.00   0.48965282 
633.00   0.63282161 
634.00   0.76783439 
635.00   0.88113117 
636.00   0.96071430 
637.00   0.99787602 
638.00   0.98847969 
639.00   0.93357531 
640.00   0.83924282 
641.00   0.71569061 
642.00   0.57576424 
643.00   0.43311965 
644.00   0.51746407 
645.00   0.65499807 
646.00   0.78295489 
647.00   0.88929027 
648.00   0.96349988 
649.00   0.99802876 
650.00   0.98930527 
651.00   0.93823498 
652.00   0.85007517 
653.00   0.73371011 
654.00   0.60044321 
655.00   0.46249748 
656.00   0.47847825 
657.00   0.61137239 
658.00   0.73903667 
659.00   0.85056552 
660.00   0.93590035 
661.00   0.98706835 
662.00   0.99918782 
663.00   0.97109218 
664.00   0.90547988 
665.00   0.80856809 
666.00   0.68930140 
667.00   0.55823308 
668.00   0.42624220 
669.00   0.50776319 
670.00   0.63544901 
671.00   0.75644721 
672.00   0.86108559 
673.00   0.94057815 
674.00   0.98803095 
675.00   0.99924855 
676.00   0.97323100 
677.00   0.91229284 
678.00   0.82178792 
679.00   0.70947778 
680.00   0.58463039 
681.00   0.45697154 
682.00   0.47525209 
683.00   0.59814490 
684.00   0.71750211 
685.00   0.82467589 
686.00   0.91147084 
687.00   0.97100287 
688.00   0.99843853 
689.00   0.99152223 
690.00   0.95082421 
691.00   0.87967769 
692.00   0.78381335 
693.00   0.67073753 
694.00   0.54893283 
695.00   0.42698093 
696.00   0.50572826 
697.00   0.62373589 
698.00   0.73681768 
699.00   0.83731954 
700.00   0.91810036 
701.00   0.97322607 
702.00   0.99855949 
703.00   0.99217727 
704.00   0.95456523 
705.00   0.88856891 
706.00   0.79910531 
707.00   0.69266961 
708.00   0.57669466 
709.00   0.45883703 
710.00   0.45691162 
711.00   0.56995015 
712.00   0.68165327 
713.00   0.78526236 
714.00   0.87414851 
715.00   0.94239687 
716.00   0.98534243 
717.00   1.00000000 
718.00   0.98534243 
719.00   0.94239687 
720.00   0.87414851 
721.00   0.78526236 
722.00   0.68165327 
723.00   0.56995015 
724.00   0.45691162 
725.00   0.46768122 
726.00   0.57621125 
727.00   0.68317915 
728.00   0.78261715 
729.00   0.86867395 
730.00   0.93608929 
731.00   0.98063189 
732.00   0.99945790 
733.00   0.99135455 
734.00   0.95684462 
735.00   0.89814138 
736.00   0.81895841 
737.00   0.72419338 
738.00   0.61951709 
739.00   0.51090812 
740.00   0.40417811 
741.00   0.51077296 
742.00   0.61485020 
743.00   0.71555724 
744.00   0.80763158 
745.00   0.88603557 
746.00   0.94633492 
747.00   0.98503950 
748.00   0.99987562 
749.00   0.98996517 
750.00   0.95589513 
751.00   0.89967106 
752.00   0.82455891 
753.00   0.73482963 
754.00   0.63542973 
755.00   0.53160774 
756.00   0.42852952 
757.00   0.48285982 
758.00   0.58248670 
759.00   0.68051914 
760.00   0.77235042 
761.00   0.85344726 
762.00   0.91965871 
763.00   0.96750606 
764.00   0.99443010 
765.00   0.99897509 
766.00   0.98089424 
767.00   0.94116757 
768.00   0.88193086 
769.00   0.80632157 
770.00   0.71825465 
771.00   0.62214702 
772.00   0.52261324 
773.00   0.42415735 
774.00   0.47852963 
775.00   0.57373999 
776.00   0.66785818 
777.00   0.75686541 
778.00   0.83677008 
779.00   0.90385536 
780.00   0.95491562 
781.00   0.98746408 
782.00   0.99989588 
783.00   0.99159420 
784.00   0.96297116 
785.00   0.91544052 
786.00   0.85132405 
787.00   0.77369900 
788.00   0.68619820 
789.00   0.59277801 
790.00   0.49747150 
791.00   0.40414512 
792.00   0.49491855 
793.00   0.58594544 
794.00   0.67551405 
795.00   0.76011360 
796.00   0.83627295 
797.00   0.90075751 
798.00   0.95075707 
799.00   0.98405191 
800.00   0.99914552 
801.00   0.99535487 
802.00   0.97285178 
803.00   0.93265246 
804.00   0.87655608 
805.00   0.80703661 
806.00   0.72709541 
807.00   0.64008506 
808.00   0.54951621 
809.00   0.45886094 
810.00   0.43503060 
811.00   0.52095486 
812.00   0.60775797 
813.00   0.69247231 
814.00   0.77204089 
815.00   0.84347136 
816.00   0.90399123 
817.00   0.95119491 
818.00   0.98317330 
819.00   0.99861782 
820.00   0.99689224 
821.00   0.97806779 
822.00   0.94291918 
823.00   0.89288196 
824.00   0.82997378 
825.00   0.75668466 
826.00   0.67584322 
827.00   0.59046725 
828.00   0.50360798 
829.00   0.41819745 
830.00   0.47275700 
831.00   0.55533108 
832.00   0.63765734 
833.00   0.71712239 
834.00   0.79108269 
835.00   0.85698682 
836.00   0.91249657 
837.00   0.95560008 
838.00   0.98471053 
839.00   0.99874481 
840.00   0.99717759 
841.00   0.98006764 
842.00   0.94805487 
843.00   0.90232829 
844.00   0.84456674 
845.00   0.77685579 
846.00   0.70158571 
847.00   0.62133616 
848.00   0.53875434 
849.00   0.45643331 
850.00   0.43984175 
851.00   0.51782385 
852.00   0.59661716 
853.00   0.67401472 
854.00   0.74773579 
855.00   0.81551989 
856.00   0.87522270 
857.00   0.92490914 
858.00   0.96293858 
859.00   0.98803817 
860.00   0.99936007 
861.00   0.99651992 
862.00   0.97961424 
863.00   0.94921609 
864.00   0.90634904 
865.00   0.85244090 
866.00   0.78925963 
867.00   0.71883479 
868.00   0.64336857 
869.00   0.56514110 
870.00   0.48641462 
871.00   0.40934151 
872.00   0.47188900 
873.00   0.54656689 
874.00   0.62126466 
875.00   0.69405538 
876.00   0.76297561 
877.00   0.82609924 
878.00   0.88161186 
879.00   0.92788213 
880.00   0.96352694 
881.00   0.98746729 
882.00   0.99897218 
883.00   0.99768859 
884.00   0.98365596 
885.00   0.95730458 
886.00   0.91943791 
887.00   0.87119971 
888.00   0.81402753 
889.00   0.74959480 
890.00   0.67974411 
891.00   0.60641502 
892.00   0.53156951 
893.00   0.45711861 
894.00   0.38485341 
895.00   0.49689182 
896.00   0.56799517 
897.00   0.63862785 
898.00   0.70712607 
899.00   0.77181023 
900.00   0.83104229 
901.00   0.88328297 
902.00   0.92714644 
903.00   0.96145030 
904.00   0.98525865 
905.00   0.99791641 
906.00   0.99907353 
907.00   0.98869796 
908.00   0.96707680 
909.00   0.93480572 
910.00   0.89276690 
911.00   0.84209663 
912.00   0.78414385 
913.00   0.72042141 
914.00   0.65255213 
915.00   0.58221192 
916.00   0.51107224 
917.00   0.44074442 
918.00   0.43580579 
919.00   0.50233233 
920.00   0.56976180 
921.00   0.63673223 
922.00   0.70182537 
923.00   0.76360897 
924.00   0.82068067 
925.00   0.87171190 
926.00   0.91549029 
927.00   0.95095882 
928.00   0.97725038 
929.00   0.99371632 
930.00   0.99994794 
931.00   0.99579007 
932.00   0.98134627 
933.00   0.95697535 
934.00   0.92327946 
935.00   0.88108410 
936.00   0.83141088 
937.00   0.77544412 
938.00   0.71449244 
939.00   0.64994694 
940.00   0.58323745 
941.00   0.51578844 
942.00   0.44897640 
943.00   0.38408994 
944.00   0.49119937 
945.00   0.55497455 
946.00   0.61861193 
947.00   0.68091616 
948.00   0.74067118 
949.00   0.79667337 
950.00   0.84776511 
951.00   0.89286769 
952.00   0.93101234 
953.00   0.96136852 
954.00   0.98326829 
955.00   0.99622613 
956.00   0.99995334 
957.00   0.99436670 
958.00   0.97959092 
959.00   0.95595494 
960.00   0.92398211 
961.00   0.88437463 
962.00   0.83799277 
963.00   0.78582966 
964.00   0.72898234 
965.00   0.66862030 
966.00   0.60595235 
967.00   0.54219302 
968.00   0.47852963 
969.00   0.41609109 
970.00   0.45478832 
971.00   0.51462555 
972.00   0.57499253 
973.00   0.63490570 
974.00   0.69334740 
975.00   0.74929018 
976.00   0.80172198 
977.00   0.84967148 
978.00   0.89223272 
979.00   0.92858857 
980.00   0.95803190 
981.00   0.97998425 
982.00   0.99401105 
983.00   0.99983325 
984.00   0.99733469 
985.00   0.98656524 
986.00   0.96773946 
987.00   0.94123086 
988.00   0.90756199 
989.00   0.86739055 
990.00   0.82149211 
991.00   0.77073979 
992.00   0.71608167 
993.00   0.65851654 
994.00   0.59906873 
995.00   0.53876281 
996.00   0.47859881 
997.00   0.41952877 
998.00   0.44302188 
999.00   0.49925013 
1000.00   0.55616695 
