# The first columns is the wavelenght (nm) and the second column                          
# is the sum of B^2 across the LSF, nm/pixel.                                             
# This value has been created from B2lookup  matlab function.                             
# This code was provided by the Ghost team to Gemini. The comment                         
# which explain the matlab code is the following.                                         
# The function B2lookup provides values of sum(B^2) at any wavelength - i.e. the (square of)
# conversion factor from S/N per pixel to S/N per resolution element (for weak            
# spectral features). Since this varies along each order (due to the anamorphic           
# factor), it is not an overall smooth function of wavelength, and we have to find        
# which order is being used and whereabouts in the order the wanted wavelength is.        
# In this respect it is similar to the blaze function calculation, and this               
# routine is based on BlazeFunction.m. But with only a small amount of input              
# data, a 2D interpolation has to be performed to find values at any wavelength.          
# This is done as successive 1D interpolations.                                           
# The function changes significantly between blue and red cameras, so they have to        
# be done separately.                                                                     
# [Uses approximations which assume orders m are all high. Based on Schroeder             
# 'Astronomical Optics' p335]         GHOST 3 135.                                        




360.00   1.17990348 
360.10   1.18225537 
360.20   1.18456131 
360.30   1.18682156 
360.40   1.18903639 
360.50   1.19120604 
360.60   1.19333076 
360.70   1.19541080 
360.80   1.19744639 
360.90   1.19943775 
361.00   1.20138510 
361.10   1.20328866 
361.20   1.20514864 
361.30   1.20696523 
361.40   1.20873863 
361.50   1.21046903 
361.60   1.21215662 
361.70   1.21380157 
361.80   1.21540405 
361.90   1.21696425 
362.00   1.21848230 
362.10   1.21995839 
362.20   1.22139265 
362.30   1.22278523 
362.40   1.22413628 
362.50   1.22544593 
362.60   1.22671432 
362.70   1.22794158 
362.80   1.22912781 
362.90   1.23027316 
363.00   1.23137773 
363.10   1.23244162 
363.20   1.23346495 
363.30   1.23444781 
363.40   1.23539031 
363.50   1.23629253 
363.60   1.23715456 
363.70   1.23797649 
363.80   1.23875840 
363.90   1.23950036 
364.00   1.24020244 
364.10   1.24086472 
364.20   1.18779358 
364.30   1.19004960 
364.40   1.19225836 
364.50   1.19442014 
364.60   1.19653519 
364.70   1.19860376 
364.80   1.20062608 
364.90   1.20260239 
365.00   1.20453291 
365.10   1.20641787 
365.20   1.20825748 
365.30   1.21005194 
365.40   1.21180146 
365.50   1.21350623 
365.60   1.21516644 
365.70   1.21678226 
365.80   1.21835389 
365.90   1.21988149 
366.00   1.22136521 
366.10   1.22280524 
366.20   1.22420170 
366.30   1.22555477 
366.40   1.22686458 
366.50   1.22813126 
366.60   1.22935496 
366.70   1.23053579 
366.80   1.23167389 
366.90   1.23276937 
367.00   1.23382235 
367.10   1.23483293 
367.20   1.23580121 
367.30   1.23672731 
367.40   1.23761130 
367.50   1.23845329 
367.60   1.23925336 
367.70   1.24001158 
367.80   1.24072805 
367.90   1.24140281 
368.00   1.24203596 
368.10   1.18885293 
368.20   1.19114011 
368.30   1.19337841 
368.40   1.19556809 
368.50   1.19770942 
368.60   1.19980266 
368.70   1.20184806 
368.80   1.20384587 
368.90   1.20579632 
369.00   1.20769965 
369.10   1.20955606 
369.20   1.21136579 
369.30   1.21312904 
369.40   1.21484600 
369.50   1.21651688 
369.60   1.21814187 
369.70   1.21972115 
369.80   1.22125490 
369.90   1.22274329 
370.00   1.22418648 
370.10   1.22558463 
370.20   1.22693790 
370.30   1.22824644 
370.40   1.22951039 
370.50   1.23072988 
370.60   1.23190505 
370.70   1.23303603 
370.80   1.23412293 
370.90   1.23516588 
371.00   1.23616498 
371.10   1.23712034 
371.20   1.23803206 
371.30   1.23890024 
371.40   1.23972497 
371.50   1.24050634 
371.60   1.24124442 
371.70   1.24193930 
371.80   1.24259105 
371.90   1.24319973 
372.00   1.24376542 
372.10   1.18765642 
372.20   1.19001421 
372.30   1.19232163 
372.40   1.19457898 
372.50   1.19678653 
372.60   1.19894456 
372.70   1.20105335 
372.80   1.20311314 
372.90   1.20512419 
373.00   1.20708674 
373.10   1.20900103 
373.20   1.21086728 
373.30   1.21268573 
373.40   1.21445658 
373.50   1.21618004 
373.60   1.21785632 
373.70   1.21948560 
373.80   1.22106808 
373.90   1.22260394 
374.00   1.22409335 
374.10   1.22553648 
374.20   1.22693349 
374.30   1.22828455 
374.40   1.22958981 
374.50   1.23084940 
374.60   1.23206348 
374.70   1.23323217 
374.80   1.23435560 
374.90   1.23543390 
375.00   1.23646719 
375.10   1.23745557 
375.20   1.23839916 
375.30   1.23929805 
375.40   1.24015235 
375.50   1.24096215 
375.60   1.24172753 
375.70   1.24244858 
375.80   1.24312537 
375.90   1.24375798 
376.00   1.24434647 
376.10   1.24489091 
376.20   1.18887451 
376.30   1.19124495 
376.40   1.19356419 
376.50   1.19583253 
376.60   1.19805025 
376.70   1.20021765 
376.80   1.20233498 
376.90   1.20440252 
377.00   1.20642052 
377.10   1.20838922 
377.20   1.21030888 
377.30   1.21217972 
377.40   1.21400196 
377.50   1.21577583 
377.60   1.21750153 
377.70   1.21917928 
377.80   1.22080927 
377.90   1.22239169 
378.00   1.22392672 
378.10   1.22541455 
378.20   1.22685534 
378.30   1.22824926 
378.40   1.22959648 
378.50   1.23089713 
378.60   1.23215138 
378.70   1.23335936 
378.80   1.23452120 
378.90   1.23563705 
379.00   1.23670701 
379.10   1.23773122 
379.20   1.23870979 
379.30   1.23964281 
379.40   1.24053041 
379.50   1.24137266 
379.60   1.24216968 
379.70   1.24292153 
379.80   1.24362831 
379.90   1.24429009 
380.00   1.24490695 
380.10   1.24547894 
380.20   1.24600614 
380.30   1.18774825 
380.40   1.19017443 
380.50   1.19254863 
380.60   1.19487116 
380.70   1.19714231 
380.80   1.19936238 
380.90   1.20153166 
381.00   1.20365041 
381.10   1.20571891 
381.20   1.20773741 
381.30   1.20970616 
381.40   1.21162540 
381.50   1.21349538 
381.60   1.21531631 
381.70   1.21708842 
381.80   1.21881192 
381.90   1.22048702 
382.00   1.22211391 
382.10   1.22369279 
382.20   1.22522384 
382.30   1.22670724 
382.40   1.22814317 
382.50   1.22953179 
382.60   1.23087326 
382.70   1.23216774 
382.80   1.23341537 
382.90   1.23461629 
383.00   1.23577065 
383.10   1.23687856 
383.20   1.23794017 
383.30   1.23895558 
383.40   1.23992491 
383.50   1.24084826 
383.60   1.24172575 
383.70   1.24255746 
383.80   1.24334349 
383.90   1.24408392 
384.00   1.24477884 
384.10   1.24542833 
384.20   1.24603245 
384.30   1.24659127 
384.40   1.24710484 
384.50   1.24757324 
384.60   1.18912544 
384.70   1.19154739 
384.80   1.19391720 
384.90   1.19623519 
385.00   1.19850167 
385.10   1.20071691 
385.20   1.20288121 
385.30   1.20499483 
385.40   1.20705805 
385.50   1.20907113 
385.60   1.21103430 
385.70   1.21294782 
385.80   1.21481193 
385.90   1.21662683 
386.00   1.21839277 
386.10   1.22010994 
386.20   1.22177856 
386.30   1.22339883 
386.40   1.22497093 
386.50   1.22649505 
386.60   1.22797137 
386.70   1.22940006 
386.80   1.23078129 
386.90   1.23211521 
387.00   1.23340199 
387.10   1.23464177 
387.20   1.23583468 
387.30   1.23698087 
387.40   1.23808047 
387.50   1.23913359 
387.60   1.24014036 
387.70   1.24110089 
387.80   1.24201529 
387.90   1.24288366 
388.00   1.24370609 
388.10   1.24448268 
388.20   1.24521352 
388.30   1.24589867 
388.40   1.24653823 
388.50   1.24713225 
388.60   1.24768080 
388.70   1.24818395 
388.80   1.24864175 
388.90   1.24905425 
389.00   1.19057492 
389.10   1.19298491 
389.20   1.19534292 
389.30   1.19764925 
389.40   1.19990421 
389.50   1.20210807 
389.60   1.20426112 
389.70   1.20636363 
389.80   1.20841587 
389.90   1.21041810 
390.00   1.21237055 
390.10   1.21427347 
390.20   1.21612709 
390.30   1.21793164 
390.40   1.21968734 
390.50   1.22139439 
390.60   1.22305300 
390.70   1.22466337 
390.80   1.22622568 
390.90   1.22774013 
391.00   1.22920688 
391.10   1.23062610 
391.20   1.23199797 
391.30   1.23332264 
391.40   1.23460026 
391.50   1.23583098 
391.60   1.23701493 
391.70   1.23815226 
391.80   1.23924308 
391.90   1.24028753 
392.00   1.24128572 
392.10   1.24223776 
392.20   1.24314376 
392.30   1.24400381 
392.40   1.24481802 
392.50   1.24558647 
392.60   1.24630924 
392.70   1.24698643 
392.80   1.24761809 
392.90   1.24820431 
393.00   1.24874514 
393.10   1.24924064 
393.20   1.24969087 
393.30   1.25009588 
393.40   1.18964496 
393.50   1.19208789 
393.60   1.19447893 
393.70   1.19681840 
393.80   1.19910660 
393.90   1.20134382 
394.00   1.20353034 
394.10   1.20566645 
394.20   1.20775240 
394.30   1.20978847 
394.40   1.21177489 
394.50   1.21371191 
394.60   1.21559978 
394.70   1.21743871 
394.80   1.21922893 
394.90   1.22097066 
395.00   1.22266409 
395.10   1.22430944 
395.20   1.22590689 
395.30   1.22745664 
395.40   1.22895885 
395.50   1.23041372 
395.60   1.23182140 
395.70   1.23318205 
395.80   1.23449584 
395.90   1.23576290 
396.00   1.23698339 
396.10   1.23815744 
396.20   1.23928519 
396.30   1.24036676 
396.40   1.24140227 
396.50   1.24239183 
396.60   1.24333556 
396.70   1.24423356 
396.80   1.24508593 
396.90   1.24589277 
397.00   1.24665415 
397.10   1.24737017 
397.20   1.24804090 
397.30   1.24866642 
397.40   1.24924679 
397.50   1.24978207 
397.60   1.25027234 
397.70   1.25071762 
397.80   1.25111799 
397.90   1.25147347 
398.00   1.19123893 
398.10   1.19365595 
398.20   1.19602173 
398.30   1.19833658 
398.40   1.20060080 
398.50   1.20281467 
398.60   1.20497847 
398.70   1.20709247 
398.80   1.20915692 
398.90   1.21117209 
399.00   1.21313822 
399.10   1.21505554 
399.20   1.21692429 
399.30   1.21874469 
399.40   1.22051696 
399.50   1.22224130 
399.60   1.22391792 
399.70   1.22554702 
399.80   1.22712878 
399.90   1.22866339 
400.00   1.23015102 
400.10   1.23159184 
400.20   1.23298603 
400.30   1.23433372 
400.40   1.23563509 
400.50   1.23689027 
400.60   1.23809940 
400.70   1.23926262 
400.80   1.24038006 
400.90   1.24145184 
401.00   1.24247809 
401.10   1.24345890 
401.20   1.24439440 
401.30   1.24528468 
401.40   1.24612983 
401.50   1.24692996 
401.60   1.24768515 
401.70   1.24839547 
401.80   1.24906101 
401.90   1.24968184 
402.00   1.25025802 
402.10   1.25078962 
402.20   1.25127669 
402.30   1.25171929 
402.40   1.25211745 
402.50   1.25247123 
402.60   1.19045000 
402.70   1.19288590 
402.80   1.19527113 
402.90   1.19760598 
403.00   1.19989076 
403.10   1.20212574 
403.20   1.20431121 
403.30   1.20644743 
403.40   1.20853466 
403.50   1.21057316 
403.60   1.21256318 
403.70   1.21450495 
403.80   1.21639870 
403.90   1.21824466 
404.00   1.22004304 
404.10   1.22179406 
404.20   1.22349792 
404.30   1.22515481 
404.40   1.22676492 
404.50   1.22832844 
404.60   1.22984555 
404.70   1.23131642 
404.80   1.23274121 
404.90   1.23412008 
405.00   1.23545319 
405.10   1.23674068 
405.20   1.23798270 
405.30   1.23917939 
405.40   1.24033087 
405.50   1.24143727 
405.60   1.24249871 
405.70   1.24351531 
405.80   1.24448717 
405.90   1.24541441 
406.00   1.24629711 
406.10   1.24713538 
406.20   1.24792931 
406.30   1.24867897 
406.40   1.24938445 
406.50   1.25004583 
406.60   1.25066317 
406.70   1.25123654 
406.80   1.25176600 
406.90   1.25225160 
407.00   1.25269340 
407.10   1.25309144 
407.20   1.25344577 
407.30   1.18973209 
407.40   1.19217984 
407.50   1.19457766 
407.60   1.19692586 
407.70   1.19922473 
407.80   1.20147456 
407.90   1.20367561 
408.00   1.20582815 
408.10   1.20793245 
408.20   1.20998875 
408.30   1.21199730 
408.40   1.21395834 
408.50   1.21587210 
408.60   1.21773880 
408.70   1.21955865 
408.80   1.22133187 
408.90   1.22305865 
409.00   1.22473920 
409.10   1.22637370 
409.20   1.22796235 
409.30   1.22950530 
409.40   1.23100275 
409.50   1.23245485 
409.60   1.23386176 
409.70   1.23522364 
409.80   1.23654064 
409.90   1.23781290 
410.00   1.23904056 
410.10   1.24022374 
410.20   1.24136259 
410.30   1.24245721 
410.40   1.24350773 
410.50   1.24451426 
410.60   1.24547690 
410.70   1.24639576 
410.80   1.24727094 
410.90   1.24810252 
411.00   1.24889059 
411.10   1.24963523 
411.20   1.25033653 
411.30   1.25099455 
411.40   1.25160936 
411.50   1.25218104 
411.60   1.25270962 
411.70   1.25319518 
411.80   1.25363776 
411.90   1.25403741 
412.00   1.25439416 
412.10   1.25470805 
412.20   1.19154784 
412.30   1.19395149 
412.40   1.19630645 
412.50   1.19861299 
412.60   1.20087140 
412.70   1.20308195 
412.80   1.20524490 
412.90   1.20736050 
413.00   1.20942901 
413.10   1.21145067 
413.20   1.21342571 
413.30   1.21535436 
413.40   1.21723684 
413.50   1.21907336 
413.60   1.22086412 
413.70   1.22260934 
413.80   1.22430921 
413.90   1.22596391 
414.00   1.22757363 
414.10   1.22913854 
414.20   1.23065882 
414.30   1.23213463 
414.40   1.23356612 
414.50   1.23495346 
414.60   1.23629679 
414.70   1.23759626 
414.80   1.23885201 
414.90   1.24006415 
415.00   1.24123284 
415.10   1.24235818 
415.20   1.24344029 
415.30   1.24447929 
415.40   1.24547529 
415.50   1.24642839 
415.60   1.24733868 
415.70   1.24820626 
415.80   1.24903123 
415.90   1.24981365 
416.00   1.25055362 
416.10   1.25125121 
416.20   1.25190649 
416.30   1.25251952 
416.40   1.25309038 
416.50   1.25361911 
416.60   1.25410576 
416.70   1.25455040 
416.80   1.25495306 
416.90   1.25531378 
417.00   1.25563260 
417.10   1.25590955 
417.20   1.19101345 
417.30   1.19341544 
417.40   1.19576984 
417.50   1.19807692 
417.60   1.20033695 
417.70   1.20255021 
417.80   1.20471695 
417.90   1.20683741 
418.00   1.20891185 
418.10   1.21094050 
418.20   1.21292359 
418.30   1.21486134 
418.40   1.21675396 
418.50   1.21860168 
418.60   1.22040469 
418.70   1.22216320 
418.80   1.22387738 
418.90   1.22554744 
419.00   1.22717354 
419.10   1.22875587 
419.20   1.23029459 
419.30   1.23178987 
419.40   1.23324186 
419.50   1.23465072 
419.60   1.23601659 
419.70   1.23733962 
419.80   1.23861994 
419.90   1.23985769 
420.00   1.24105299 
420.10   1.24220597 
420.20   1.24331674 
420.30   1.24438542 
420.40   1.24541211 
420.50   1.24639692 
420.60   1.24733995 
420.70   1.24824130 
420.80   1.24910104 
420.90   1.24991928 
421.00   1.25069609 
421.10   1.25143154 
421.20   1.25212572 
421.30   1.25277868 
421.40   1.25339050 
421.50   1.25396123 
421.60   1.25449093 
421.70   1.25497965 
421.80   1.25542744 
421.90   1.25583435 
422.00   1.25620040 
422.10   1.25652565 
422.20   1.25681012 
422.30   1.19057094 
422.40   1.19296483 
422.50   1.19531235 
422.60   1.19761379 
422.70   1.19986940 
422.80   1.20207944 
422.90   1.20424417 
423.00   1.20636383 
423.10   1.20843865 
423.20   1.21046887 
423.30   1.21245471 
423.40   1.21439639 
423.50   1.21629412 
423.60   1.21814810 
423.70   1.21995854 
423.80   1.22172563 
423.90   1.22344955 
424.00   1.22513049 
424.10   1.22676863 
424.20   1.22836413 
424.30   1.22991716 
424.40   1.23142789 
424.50   1.23289647 
424.60   1.23432304 
424.70   1.23570776 
424.80   1.23705076 
424.90   1.23835218 
425.00   1.23961216 
425.10   1.24083081 
425.20   1.24200826 
425.30   1.24314463 
425.40   1.24424003 
425.50   1.24529456 
425.60   1.24630834 
425.70   1.24728145 
425.80   1.24821400 
425.90   1.24910608 
426.00   1.24995777 
426.10   1.25076915 
426.20   1.25154031 
426.30   1.25227132 
426.40   1.25296224 
426.50   1.25361315 
426.60   1.25422411 
426.70   1.25479517 
426.80   1.25532639 
426.90   1.25581782 
427.00   1.25626951 
427.10   1.25668150 
427.20   1.25705383 
427.30   1.25738653 
427.40   1.25767963 
427.50   1.25793317 
427.60   1.19260669 
427.70   1.19494123 
427.80   1.19723103 
427.90   1.19947633 
428.00   1.20167739 
428.10   1.20383446 
428.20   1.20594776 
428.30   1.20801753 
428.40   1.21004399 
428.50   1.21202735 
428.60   1.21396784 
428.70   1.21586565 
428.80   1.21772099 
428.90   1.21953404 
429.00   1.22130500 
429.10   1.22303404 
429.20   1.22472136 
429.30   1.22636711 
429.40   1.22797147 
429.50   1.22953460 
429.60   1.23105665 
429.70   1.23253778 
429.80   1.23397813 
429.90   1.23537785 
430.00   1.23673708 
430.10   1.23805594 
430.20   1.23933457 
430.30   1.24057309 
430.40   1.24177163 
430.50   1.24293029 
430.60   1.24404919 
430.70   1.24512844 
430.80   1.24616813 
430.90   1.24716837 
431.00   1.24812926 
431.10   1.24905088 
431.20   1.24993332 
431.30   1.25077667 
431.40   1.25158099 
431.50   1.25234637 
431.60   1.25307289 
431.70   1.25376060 
431.80   1.25440957 
431.90   1.25501986 
432.00   1.25559152 
432.10   1.25612462 
432.20   1.25661919 
432.30   1.25707529 
432.40   1.25749296 
432.50   1.25787223 
432.60   1.25821314 
432.70   1.25851572 
432.80   1.25877999 
432.90   1.25900599 
433.00   1.19466272 
433.10   1.19693510 
433.20   1.19916442 
433.30   1.20135092 
433.40   1.20349484 
433.50   1.20559639 
433.60   1.20765580 
433.70   1.20967330 
433.80   1.21164907 
433.90   1.21358334 
434.00   1.21547630 
434.10   1.21732813 
434.20   1.21913904 
434.30   1.22090919 
434.40   1.22263877 
434.50   1.22432795 
434.60   1.22597690 
434.70   1.22758577 
434.80   1.22915473 
434.90   1.23068393 
435.00   1.23217351 
435.10   1.23362362 
435.20   1.23503441 
435.30   1.23640599 
435.40   1.23773851 
435.50   1.23903209 
435.60   1.24028685 
435.70   1.24150291 
435.80   1.24268038 
435.90   1.24381937 
436.00   1.24492000 
436.10   1.24598235 
436.20   1.24700653 
436.30   1.24799263 
436.40   1.24894075 
436.50   1.24985096 
436.60   1.25072335 
436.70   1.25155800 
436.80   1.25235499 
436.90   1.25311438 
437.00   1.25383626 
437.10   1.25452067 
437.20   1.25516768 
437.30   1.25577735 
437.40   1.25634974 
437.50   1.25688489 
437.60   1.25738285 
437.70   1.25784367 
437.80   1.25826739 
437.90   1.25865404 
438.00   1.25900366 
438.10   1.25931628 
438.20   1.25959193 
438.30   1.25983063 
438.40   1.26003240 
438.50   1.19449592 
438.60   1.19674462 
438.70   1.19895178 
438.80   1.20111764 
438.90   1.20324243 
439.00   1.20532635 
439.10   1.20736963 
439.20   1.20937247 
439.30   1.21133507 
439.40   1.21325762 
439.50   1.21514032 
439.60   1.21698334 
439.70   1.21878687 
439.80   1.22055109 
439.90   1.22227617 
440.00   1.22396226 
440.10   1.22560953 
440.20   1.22721814 
440.30   1.22878824 
440.40   1.23031998 
440.50   1.23181350 
440.60   1.23326893 
440.70   1.23468642 
440.80   1.23606609 
440.90   1.23740807 
441.00   1.23871249 
441.10   1.23997946 
441.20   1.24120909 
441.30   1.24240150 
441.40   1.24355679 
441.50   1.24467507 
441.60   1.24575644 
441.70   1.24680099 
441.80   1.24780881 
441.90   1.24878000 
442.00   1.24971464 
442.10   1.25061281 
442.20   1.25147459 
442.30   1.25230006 
442.40   1.25308928 
442.50   1.25384233 
442.60   1.25455927 
442.70   1.25524017 
442.80   1.25588507 
442.90   1.25649404 
443.00   1.25706713 
443.10   1.25760439 
443.20   1.25810586 
443.30   1.25857159 
443.40   1.25900161 
443.50   1.25939597 
443.60   1.25975469 
443.70   1.26007781 
443.80   1.26036535 
443.90   1.26061734 
444.00   1.26083381 
444.10   1.19443148 
444.20   1.19665127 
444.30   1.19883114 
444.40   1.20097129 
444.50   1.20307193 
444.60   1.20513328 
444.70   1.20715553 
444.80   1.20913889 
444.90   1.21108353 
445.00   1.21298966 
445.10   1.21485744 
445.20   1.21668706 
445.30   1.21847869 
445.40   1.22023250 
445.50   1.22194864 
445.60   1.22362728 
445.70   1.22526857 
445.80   1.22687266 
445.90   1.22843970 
446.00   1.22996983 
446.10   1.23146318 
446.20   1.23291989 
446.30   1.23434009 
446.40   1.23572391 
446.50   1.23707146 
446.60   1.23838287 
446.70   1.23965825 
446.80   1.24089771 
446.90   1.24210136 
447.00   1.24326930 
447.10   1.24440163 
447.20   1.24549846 
447.30   1.24655987 
447.40   1.24758595 
447.50   1.24857680 
447.60   1.24953249 
447.70   1.25045311 
447.80   1.25133873 
447.90   1.25218943 
448.00   1.25300527 
448.10   1.25378634 
448.20   1.25453269 
448.30   1.25524438 
448.40   1.25592147 
448.50   1.25656402 
448.60   1.25717209 
448.70   1.25774571 
448.80   1.25828495 
448.90   1.25878983 
449.00   1.25926042 
449.10   1.25969673 
449.20   1.26009881 
449.30   1.26046670 
449.40   1.26080041 
449.50   1.26109999 
449.60   1.26136544 
449.70   1.26159680 
449.80   1.26179408 
449.90   1.19448658 
450.00   1.19667186 
450.10   1.19881887 
450.20   1.20092782 
450.30   1.20299890 
450.40   1.20503232 
450.50   1.20702826 
450.60   1.20898691 
450.70   1.21090845 
450.80   1.21279306 
450.90   1.21464090 
451.00   1.21645215 
451.10   1.21822697 
451.20   1.21996551 
451.30   1.22166794 
451.40   1.22333440 
451.50   1.22496505 
451.60   1.22656001 
451.70   1.22811944 
451.80   1.22964346 
451.90   1.23113222 
452.00   1.23258583 
452.10   1.23400442 
452.20   1.23538811 
452.30   1.23673702 
452.40   1.23805126 
452.50   1.23933095 
452.60   1.24057618 
452.70   1.24178707 
452.80   1.24296371 
452.90   1.24410621 
453.00   1.24521464 
453.10   1.24628912 
453.20   1.24732971 
453.30   1.24833652 
453.40   1.24930961 
453.50   1.25024907 
453.60   1.25115498 
453.70   1.25202740 
453.80   1.25286641 
453.90   1.25367208 
454.00   1.25444446 
454.10   1.25518362 
454.20   1.25588962 
454.30   1.25656251 
454.40   1.25720236 
454.50   1.25780920 
454.60   1.25838308 
454.70   1.25892406 
454.80   1.25943217 
454.90   1.25990745 
455.00   1.26034994 
455.10   1.26075968 
455.20   1.26113669 
455.30   1.26148101 
455.40   1.26179267 
455.50   1.26207167 
455.60   1.26231806 
455.70   1.26253185 
455.80   1.26271304 
455.90   1.19679553 
456.00   1.19890519 
456.10   1.20097847 
456.20   1.20301557 
456.30   1.20501666 
456.40   1.20698193 
456.50   1.20891155 
456.60   1.21080569 
456.70   1.21266451 
456.80   1.21448819 
456.90   1.21627687 
457.00   1.21803071 
457.10   1.21974986 
457.20   1.22143448 
457.30   1.22308469 
457.40   1.22470064 
457.50   1.22628246 
457.60   1.22783030 
457.70   1.22934426 
457.80   1.23082449 
457.90   1.23227110 
458.00   1.23368421 
458.10   1.23506394 
458.20   1.23641039 
458.30   1.23772368 
458.40   1.23900391 
458.50   1.24025118 
458.60   1.24146559 
458.70   1.24264724 
458.80   1.24379623 
458.90   1.24491264 
459.00   1.24599656 
459.10   1.24704807 
459.20   1.24806726 
459.30   1.24905421 
459.40   1.25000898 
459.50   1.25093167 
459.60   1.25182233 
459.70   1.25268104 
459.80   1.25350786 
459.90   1.25430285 
460.00   1.25506607 
460.10   1.25579759 
460.20   1.25649746 
460.30   1.25716573 
460.40   1.25780245 
460.50   1.25840767 
460.60   1.25898143 
460.70   1.25952378 
460.80   1.26003476 
460.90   1.26051440 
461.00   1.26096275 
461.10   1.26137983 
461.20   1.26176567 
461.30   1.26212032 
461.40   1.26244378 
461.50   1.26273609 
461.60   1.26299726 
461.70   1.26322732 
461.80   1.26342629 
461.90   1.26359417 
462.00   1.19703711 
462.10   1.19910459 
462.20   1.20113742 
462.30   1.20313577 
462.40   1.20509982 
462.50   1.20702974 
462.60   1.20892568 
462.70   1.21078781 
462.80   1.21261629 
462.90   1.21441126 
463.00   1.21617288 
463.10   1.21790128 
463.20   1.21959662 
463.30   1.22125902 
463.40   1.22288862 
463.50   1.22448556 
463.60   1.22604996 
463.70   1.22758194 
463.80   1.22908163 
463.90   1.23054914 
464.00   1.23198460 
464.10   1.23338810 
464.20   1.23475976 
464.30   1.23609969 
464.40   1.23740799 
464.50   1.23868476 
464.60   1.23993010 
464.70   1.24114409 
464.80   1.24232684 
464.90   1.24347844 
465.00   1.24459896 
465.10   1.24568849 
465.20   1.24674712 
465.30   1.24777492 
465.40   1.24877197 
465.50   1.24973835 
465.60   1.25067411 
465.70   1.25157934 
465.80   1.25245410 
465.90   1.25329845 
466.00   1.25411245 
466.10   1.25489616 
466.20   1.25564965 
466.30   1.25637296 
466.40   1.25706614 
466.50   1.25772925 
466.60   1.25836234 
466.70   1.25896544 
466.80   1.25953860 
466.90   1.26008187 
467.00   1.26059528 
467.10   1.26107886 
467.20   1.26153266 
467.30   1.26195670 
467.40   1.26235102 
467.50   1.26271563 
467.60   1.26305058 
467.70   1.26335587 
467.80   1.26363154 
467.90   1.26387760 
468.00   1.26409407 
468.10   1.26428097 
468.20   1.26443830 
468.30   1.19739698 
468.40   1.19941785 
468.50   1.20140582 
468.60   1.20336105 
468.70   1.20528370 
468.80   1.20717394 
468.90   1.20903190 
469.00   1.21085775 
469.10   1.21265161 
469.20   1.21441365 
469.30   1.21614399 
469.40   1.21784276 
469.50   1.21951011 
469.60   1.22114616 
469.70   1.22275104 
469.80   1.22432486 
469.90   1.22586775 
470.00   1.22737983 
470.10   1.22886120 
470.20   1.23031198 
470.30   1.23173229 
470.40   1.23312221 
470.50   1.23448186 
470.60   1.23581133 
470.70   1.23711073 
470.80   1.23838014 
470.90   1.23961966 
471.00   1.24082938 
471.10   1.24200939 
471.20   1.24315977 
471.30   1.24428060 
471.40   1.24537196 
471.50   1.24643393 
471.60   1.24746659 
471.70   1.24847000 
471.80   1.24944425 
471.90   1.25038939 
472.00   1.25130549 
472.10   1.25219261 
472.20   1.25305083 
472.30   1.25388019 
472.40   1.25468076 
472.50   1.25545258 
472.60   1.25619572 
472.70   1.25691022 
472.80   1.25759613 
472.90   1.25825350 
473.00   1.25888238 
473.10   1.25948280 
473.20   1.26005480 
473.30   1.26059844 
473.40   1.26111373 
473.50   1.26160072 
473.60   1.26205944 
473.70   1.26248992 
473.80   1.26289219 
473.90   1.26326628 
474.00   1.26361221 
474.10   1.26393000 
474.20   1.26421968 
474.30   1.26448126 
474.40   1.26471476 
474.50   1.26492021 
474.60   1.26509760 
474.70   1.26524696 
474.80   1.19787438 
474.90   1.19984463 
475.00   1.20178374 
475.10   1.20369187 
475.20   1.20556915 
475.30   1.20741574 
475.40   1.20923178 
475.50   1.21101739 
475.60   1.21277272 
475.70   1.21449790 
475.80   1.21619306 
475.90   1.21785831 
476.00   1.21949379 
476.10   1.22109961 
476.20   1.22267590 
476.30   1.22422275 
476.40   1.22574030 
476.50   1.22722863 
476.60   1.22868787 
476.70   1.23011811 
476.80   1.23151946 
476.90   1.23289201 
477.00   1.23423586 
477.10   1.23555110 
477.20   1.23683783 
477.30   1.23809613 
477.40   1.23932609 
477.50   1.24052780 
477.60   1.24170133 
477.70   1.24284677 
477.80   1.24396419 
477.90   1.24505367 
478.00   1.24611529 
478.10   1.24714910 
478.20   1.24815519 
478.30   1.24913362 
478.40   1.25008446 
478.50   1.25100776 
478.60   1.25190359 
478.70   1.25277201 
478.80   1.25361308 
478.90   1.25442684 
479.00   1.25521335 
479.10   1.25597267 
479.20   1.25670484 
479.30   1.25740992 
479.40   1.25808793 
479.50   1.25873894 
479.60   1.25936298 
479.70   1.25996009 
479.80   1.26053032 
479.90   1.26107368 
480.00   1.26159023 
480.10   1.26208000 
480.20   1.26254301 
480.30   1.26297929 
480.40   1.26338888 
480.50   1.26377179 
480.60   1.26412806 
480.70   1.26445770 
480.80   1.26476074 
480.90   1.26503719 
481.00   1.26528707 
481.10   1.26551041 
481.20   1.26570720 
481.30   1.26587747 
481.40   1.19845437 
481.50   1.20037101 
481.60   1.20225827 
481.70   1.20411627 
481.80   1.20594515 
481.90   1.20774505 
482.00   1.20951610 
482.10   1.21125842 
482.20   1.21297213 
482.30   1.21465736 
482.40   1.21631423 
482.50   1.21794284 
482.60   1.21954332 
482.70   1.22111578 
482.80   1.22266031 
482.90   1.22417704 
483.00   1.22566606 
483.10   1.22712747 
483.20   1.22856137 
483.30   1.22996785 
483.40   1.23134702 
483.50   1.23269896 
483.60   1.23402377 
483.70   1.23532152 
483.80   1.23659231 
483.90   1.23783622 
484.00   1.23905332 
484.10   1.24024370 
484.20   1.24140744 
484.30   1.24254461 
484.40   1.24365527 
484.50   1.24473952 
484.60   1.24579740 
484.70   1.24682899 
484.80   1.24783436 
484.90   1.24881357 
485.00   1.24976667 
485.10   1.25069374 
485.20   1.25159482 
485.30   1.25246998 
485.40   1.25331926 
485.50   1.25414272 
485.60   1.25494041 
485.70   1.25571238 
485.80   1.25645868 
485.90   1.25717936 
486.00   1.25787444 
486.10   1.25854399 
486.20   1.25918804 
486.30   1.25980663 
486.40   1.26039979 
486.50   1.26096757 
486.60   1.26151000 
486.70   1.26202710 
486.80   1.26251891 
486.90   1.26298547 
487.00   1.26342679 
487.10   1.26384291 
487.20   1.26423385 
487.30   1.26459963 
487.40   1.26494027 
487.50   1.26525580 
487.60   1.26554623 
487.70   1.26581159 
487.80   1.26605188 
487.90   1.26626712 
488.00   1.26645733 
488.10   1.26662251 
488.20   1.19914772 
488.30   1.20100755 
488.40   1.20283972 
488.50   1.20464438 
488.60   1.20642163 
488.70   1.20817160 
488.80   1.20989440 
488.90   1.21159016 
489.00   1.21325899 
489.10   1.21490099 
489.20   1.21651628 
489.30   1.21810496 
489.40   1.21966713 
489.50   1.22120291 
489.60   1.22271238 
489.70   1.22419565 
489.80   1.22565280 
489.90   1.22708394 
490.00   1.22848915 
490.10   1.22986853 
490.20   1.23122215 
490.30   1.23255011 
490.40   1.23385249 
490.50   1.23512936 
490.60   1.23638082 
490.70   1.23760692 
490.80   1.23880776 
490.90   1.23998340 
491.00   1.24113391 
491.10   1.24225936 
491.20   1.24335983 
491.30   1.24443538 
491.40   1.24548607 
491.50   1.24651197 
491.60   1.24751313 
491.70   1.24848963 
491.80   1.24944150 
491.90   1.25036882 
492.00   1.25127163 
492.10   1.25214999 
492.20   1.25300395 
492.30   1.25383356 
492.40   1.25463887 
492.50   1.25541992 
492.60   1.25617676 
492.70   1.25690944 
492.80   1.25761799 
492.90   1.25830246 
493.00   1.25896289 
493.10   1.25959930 
493.20   1.26021175 
493.30   1.26080027 
493.40   1.26136488 
493.50   1.26190562 
493.60   1.26242253 
493.70   1.26291562 
493.80   1.26338494 
493.90   1.26383050 
494.00   1.26425233 
494.10   1.26465045 
494.20   1.26502489 
494.30   1.26537566 
494.40   1.26570280 
494.50   1.26600631 
494.60   1.26628621 
494.70   1.26654252 
494.80   1.26677525 
494.90   1.26698441 
495.00   1.26717003 
495.10   1.26733210 
495.20   1.19995090 
495.30   1.20175113 
495.40   1.20352543 
495.50   1.20527391 
495.60   1.20699669 
495.70   1.20869386 
495.80   1.21036555 
495.90   1.21201185 
496.00   1.21363288 
496.10   1.21522872 
496.20   1.21679948 
496.30   1.21834526 
496.40   1.21986615 
496.50   1.22136224 
496.60   1.22283363 
496.70   1.22428040 
496.80   1.22570264 
496.90   1.22710045 
497.00   1.22847389 
497.10   1.22982305 
497.20   1.23114802 
497.30   1.23244886 
497.40   1.23372566 
497.50   1.23497849 
497.60   1.23620743 
497.70   1.23741254 
497.80   1.23859389 
497.90   1.23975156 
498.00   1.24088561 
498.10   1.24199609 
498.20   1.24308309 
498.30   1.24414665 
498.40   1.24518684 
498.50   1.24620372 
498.60   1.24719734 
498.70   1.24816775 
498.80   1.24911503 
498.90   1.25003920 
499.00   1.25094034 
499.10   1.25181848 
499.20   1.25267368 
499.30   1.25350597 
499.40   1.25431542 
499.50   1.25510206 
499.60   1.25586593 
499.70   1.25660708 
499.80   1.25732554 
499.90   1.25802136 
500.00   1.25869457 
500.10   1.25934521 
500.20   1.25997332 
500.30   1.26057892 
500.40   1.26116206 
500.50   1.26172275 
500.60   1.26226104 
500.70   1.26277694 
500.80   1.26327049 
500.90   1.26374172 
501.00   1.26419064 
501.10   1.26461729 
501.20   1.26502168 
501.30   1.26540384 
501.40   1.26576378 
501.50   1.26610153 
501.60   1.26641710 
501.70   1.26671051 
501.80   1.26698177 
501.90   1.26723091 
502.00   1.26745792 
502.10   1.26766283 
502.20   1.26784565 
502.30   1.26800638 
502.40   1.26814503 
502.50   1.20087203 
502.60   1.20260979 
502.70   1.20432332 
502.80   1.20601271 
502.90   1.20767808 
503.00   1.20931951 
503.10   1.21093711 
503.20   1.21253098 
503.30   1.21410119 
503.40   1.21564786 
503.50   1.21717106 
503.60   1.21867089 
503.70   1.22014742 
503.80   1.22160076 
503.90   1.22303097 
504.00   1.22443814 
504.10   1.22582234 
504.20   1.22718367 
504.30   1.22852218 
504.40   1.22983797 
504.50   1.23113109 
504.60   1.23240162 
504.70   1.23364964 
504.80   1.23487520 
504.90   1.23607838 
505.00   1.23725924 
505.10   1.23841784 
505.20   1.23955426 
505.30   1.24066854 
505.40   1.24176075 
505.50   1.24283094 
505.60   1.24387918 
505.70   1.24490551 
505.80   1.24591000 
505.90   1.24689269 
506.00   1.24785364 
506.10   1.24879290 
506.20   1.24971051 
506.30   1.25060653 
506.40   1.25148100 
506.50   1.25233396 
506.60   1.25316546 
506.70   1.25397554 
506.80   1.25476424 
506.90   1.25553161 
507.00   1.25627768 
507.10   1.25700249 
507.20   1.25770608 
507.30   1.25838848 
507.40   1.25904973 
507.50   1.25968986 
507.60   1.26030890 
507.70   1.26090689 
507.80   1.26148385 
507.90   1.26203981 
508.00   1.26257480 
508.10   1.26308885 
508.20   1.26358198 
508.30   1.26405422 
508.40   1.26450559 
508.50   1.26493611 
508.60   1.26534581 
508.70   1.26573470 
508.80   1.26610280 
508.90   1.26645014 
509.00   1.26677672 
509.10   1.26708257 
509.20   1.26736770 
509.30   1.26763212 
509.40   1.26787585 
509.50   1.26809889 
509.60   1.26830127 
509.70   1.26848299 
509.80   1.26864405 
509.90   1.20188085 
510.00   1.20355472 
510.10   1.20520601 
510.20   1.20683482 
510.30   1.20844122 
510.40   1.21002531 
510.50   1.21158717 
510.60   1.21312690 
510.70   1.21464458 
510.80   1.21614028 
510.90   1.21761410 
511.00   1.21906611 
511.10   1.22049638 
511.20   1.22190500 
511.30   1.22329203 
511.40   1.22465756 
511.50   1.22600165 
511.60   1.22732438 
511.70   1.22862581 
511.80   1.22990601 
511.90   1.23116505 
512.00   1.23240299 
512.10   1.23361990 
512.20   1.23481583 
512.30   1.23599085 
512.40   1.23714502 
512.50   1.23827840 
512.60   1.23939104 
512.70   1.24048300 
512.80   1.24155433 
512.90   1.24260509 
513.00   1.24363533 
513.10   1.24464511 
513.20   1.24563446 
513.30   1.24660344 
513.40   1.24755209 
513.50   1.24848047 
513.60   1.24938862 
513.70   1.25027658 
513.80   1.25114439 
513.90   1.25199210 
514.00   1.25281975 
514.10   1.25362737 
514.20   1.25441501 
514.30   1.25518271 
514.40   1.25593049 
514.50   1.25665840 
514.60   1.25736647 
514.70   1.25805473 
514.80   1.25872323 
514.90   1.25937197 
515.00   1.26000101 
515.10   1.26061036 
515.20   1.26120006 
515.30   1.26177014 
515.40   1.26232061 
515.50   1.26285151 
515.60   1.26336286 
515.70   1.26385469 
515.80   1.26432701 
515.90   1.26477985 
516.00   1.26521323 
516.10   1.26562718 
516.20   1.26602170 
516.30   1.26639681 
516.40   1.26675255 
516.50   1.26708891 
516.60   1.26740592 
516.70   1.26770359 
516.80   1.26798193 
516.90   1.26824096 
517.00   1.26848069 
517.10   1.26870113 
517.20   1.26890229 
517.30   1.26908418 
517.40   1.26924681 
517.50   1.26939018 
517.60   1.20299619 
517.70   1.20460417 
517.80   1.20619117 
517.90   1.20775729 
518.00   1.20930260 
518.10   1.21082720 
518.20   1.21233114 
518.30   1.21381452 
518.40   1.21527740 
518.50   1.21671986 
518.60   1.21814198 
518.70   1.21954382 
518.80   1.22092545 
518.90   1.22228694 
519.00   1.22362837 
519.10   1.22494979 
519.20   1.22625127 
519.30   1.22753287 
519.40   1.22879466 
519.50   1.23003670 
519.60   1.23125904 
519.70   1.23246175 
519.80   1.23364488 
519.90   1.23480848 
520.00   1.23595263 
520.10   1.23707736 
520.20   1.23818273 
520.30   1.23926879 
520.40   1.24033560 
520.50   1.24138319 
520.60   1.24241164 
520.70   1.24342097 
520.80   1.24441123 
520.90   1.24538248 
521.00   1.24633475 
521.10   1.24726809 
521.20   1.24818254 
521.30   1.24907815 
521.40   1.24995495 
521.50   1.25081298 
521.60   1.25165228 
521.70   1.25247289 
521.80   1.25327485 
521.90   1.25405819 
522.00   1.25482295 
522.10   1.25556916 
522.20   1.25629685 
522.30   1.25700605 
522.40   1.25769681 
522.50   1.25836914 
522.60   1.25902307 
522.70   1.25965865 
522.80   1.26027588 
522.90   1.26087481 
523.00   1.26145545 
523.10   1.26201784 
523.20   1.26256199 
523.30   1.26308793 
523.40   1.26359568 
523.50   1.26408527 
523.60   1.26455671 
523.70   1.26501003 
523.80   1.26544524 
523.90   1.26586237 
524.00   1.26626143 
524.10   1.26664244 
524.20   1.26700541 
524.30   1.26735036 
524.40   1.26767731 
524.50   1.26798626 
524.60   1.26827724 
524.70   1.26855026 
524.80   1.26880532 
524.90   1.26904243 
525.00   1.26926162 
525.10   1.26946288 
525.20   1.26964622 
525.30   1.26981166 
525.40   1.26995920 
525.50   1.20419931 
525.60   1.20574025 
525.70   1.20726180 
525.80   1.20876401 
525.90   1.21024697 
526.00   1.21171074 
526.10   1.21315539 
526.20   1.21458099 
526.30   1.21598761 
526.40   1.21737532 
526.50   1.21874417 
526.60   1.22009424 
526.70   1.22142558 
526.80   1.22273825 
526.90   1.22403232 
527.00   1.22530784 
527.10   1.22656488 
527.20   1.22780349 
527.30   1.22902372 
527.40   1.23022562 
527.50   1.23140927 
527.60   1.23257469 
527.70   1.23372196 
527.80   1.23485111 
527.90   1.23596220 
528.00   1.23705528 
528.10   1.23813039 
528.20   1.23918758 
528.30   1.24022690 
528.40   1.24124838 
528.50   1.24225209 
528.60   1.24323805 
528.70   1.24420631 
528.80   1.24515692 
528.90   1.24608991 
529.00   1.24700531 
529.10   1.24790318 
529.20   1.24878355 
529.30   1.24964645 
529.40   1.25049193 
529.50   1.25132001 
529.60   1.25213073 
529.70   1.25292413 
529.80   1.25370023 
529.90   1.25445908 
530.00   1.25520070 
530.10   1.25592512 
530.20   1.25663237 
530.30   1.25732248 
530.40   1.25799548 
530.50   1.25865139 
530.60   1.25929025 
530.70   1.25991208 
530.80   1.26051690 
530.90   1.26110474 
531.00   1.26167562 
531.10   1.26222957 
531.20   1.26276660 
531.30   1.26328675 
531.40   1.26379002 
531.50   1.26427644 
531.60   1.26474604 
531.70   1.26519882 
531.80   1.26563481 
531.90   1.26605402 
532.00   1.26645647 
532.10   1.26684218 
532.20   1.26721116 
532.30   1.26756342 
532.40   1.26789899 
532.50   1.26821787 
532.60   1.26852008 
532.70   1.26880562 
532.80   1.26907451 
532.90   1.26932677 
533.00   1.26956239 
533.10   1.26978139 
533.20   1.26998378 
533.30   1.27016956 
533.40   1.27033875 
533.50   1.27049134 
533.60   1.18118633 
533.70   1.18276142 
533.80   1.18431865 
533.90   1.18585807 
534.00   1.18737977 
534.10   1.18888381 
534.20   1.19037025 
534.30   1.19183917 
534.40   1.19329062 
534.50   1.19472467 
534.60   1.19614139 
534.70   1.19754083 
534.80   1.19892305 
534.90   1.20028812 
535.00   1.20163610 
535.10   1.20296703 
535.20   1.20428098 
535.30   1.20557800 
535.40   1.20685815 
535.50   1.20812148 
535.60   1.20936804 
535.70   1.21059789 
535.80   1.21181108 
535.90   1.21300765 
536.00   1.21418765 
536.10   1.21535114 
536.20   1.21649816 
536.30   1.21762876 
536.40   1.21874298 
536.50   1.21984087 
536.60   1.22092247 
536.70   1.22198783 
536.80   1.22303698 
536.90   1.22406997 
537.00   1.22508684 
537.10   1.22608764 
537.20   1.22707239 
537.30   1.22804114 
537.40   1.22899393 
537.50   1.22993079 
537.60   1.23085176 
537.70   1.23175688 
537.80   1.23264617 
537.90   1.23351968 
538.00   1.23437744 
538.10   1.23521948 
538.20   1.23604583 
538.30   1.23685652 
538.40   1.23765159 
538.50   1.23843107 
538.60   1.23919498 
538.70   1.23994335 
538.80   1.24067622 
538.90   1.24139360 
539.00   1.24209553 
539.10   1.24278203 
539.20   1.24345313 
539.30   1.24410885 
539.40   1.24474922 
539.50   1.24537426 
539.60   1.24598399 
539.70   1.24657844 
539.80   1.24715762 
539.90   1.24772157 
540.00   1.24827029 
540.10   1.24880382 
540.20   1.24932216 
540.30   1.24982534 
540.40   1.25031338 
540.50   1.25078629 
540.60   1.25124409 
540.70   1.25168680 
540.80   1.25211444 
540.90   1.25252701 
541.00   1.25292454 
541.10   1.25330704 
541.20   1.25367452 
541.30   1.25402699 
541.40   1.25436447 
541.50   1.25468697 
541.60   1.25499451 
541.70   1.25528709 
541.80   1.25556472 
541.90   1.25582741 
542.00   1.18149350 
542.10   1.18301775 
542.20   1.18452540 
542.30   1.18601651 
542.40   1.18749113 
542.50   1.18894933 
542.60   1.19039117 
542.70   1.19181671 
542.80   1.19322601 
542.90   1.19461912 
543.00   1.19599611 
543.10   1.19735702 
543.20   1.19870191 
543.30   1.20003084 
543.40   1.20134386 
543.50   1.20264102 
543.60   1.20392237 
543.70   1.20518796 
543.80   1.20643784 
543.90   1.20767207 
544.00   1.20889069 
544.10   1.21009374 
544.20   1.21128127 
544.30   1.21245333 
544.40   1.21360996 
544.50   1.21475122 
544.60   1.21587713 
544.70   1.21698774 
544.80   1.21808310 
544.90   1.21916324 
545.00   1.22022821 
545.10   1.22127805 
545.20   1.22231279 
545.30   1.22333247 
545.40   1.22433714 
545.50   1.22532682 
545.60   1.22630156 
545.70   1.22726138 
545.80   1.22820633 
545.90   1.22913644 
546.00   1.23005174 
546.10   1.23095227 
546.20   1.23183806 
546.30   1.23270913 
546.40   1.23356553 
546.50   1.23440728 
546.60   1.23523440 
546.70   1.23604694 
546.80   1.23684492 
546.90   1.23762837 
547.00   1.23839731 
547.10   1.23915177 
547.20   1.23989179 
547.30   1.24061737 
547.40   1.24132856 
547.50   1.24202537 
547.60   1.24270783 
547.70   1.24337597 
547.80   1.24402979 
547.90   1.24466934 
548.00   1.24529463 
548.10   1.24590567 
548.20   1.24650250 
548.30   1.24708514 
548.40   1.24765359 
548.50   1.24820789 
548.60   1.24874805 
548.70   1.24927408 
548.80   1.24978602 
548.90   1.25028387 
549.00   1.25076765 
549.10   1.25123738 
549.20   1.25169307 
549.30   1.25213474 
549.40   1.25256240 
549.50   1.25297607 
549.60   1.25337577 
549.70   1.25376149 
549.80   1.25413327 
549.90   1.25449111 
550.00   1.25483502 
550.10   1.25516501 
550.20   1.25548110 
550.30   1.25578329 
550.40   1.25607160 
550.50   1.25634603 
550.60   1.25660660 
550.70   1.18034884 
550.80   1.18184098 
550.90   1.18331758 
551.00   1.18477869 
551.10   1.18622437 
551.20   1.18765467 
551.30   1.18906966 
551.40   1.19046937 
551.50   1.19185388 
551.60   1.19322323 
551.70   1.19457747 
551.80   1.19591666 
551.90   1.19724084 
552.00   1.19855007 
552.10   1.19984439 
552.20   1.20112385 
552.30   1.20238851 
552.40   1.20363840 
552.50   1.20487357 
552.60   1.20609407 
552.70   1.20729995 
552.80   1.20849123 
552.90   1.20966798 
553.00   1.21083023 
553.10   1.21197802 
553.20   1.21311140 
553.30   1.21423040 
553.40   1.21533507 
553.50   1.21642544 
553.60   1.21750155 
553.70   1.21856344 
553.80   1.21961114 
553.90   1.22064470 
554.00   1.22166415 
554.10   1.22266952 
554.20   1.22366086 
554.30   1.22463818 
554.40   1.22560153 
554.50   1.22655095 
554.60   1.22748645 
554.70   1.22840808 
554.80   1.22931586 
554.90   1.23020983 
555.00   1.23109001 
555.10   1.23195644 
555.20   1.23280914 
555.30   1.23364815 
555.40   1.23447348 
555.50   1.23528518 
555.60   1.23608326 
555.70   1.23686775 
555.80   1.23763867 
555.90   1.23839606 
556.00   1.23913994 
556.10   1.23987033 
556.20   1.24058725 
556.30   1.24129074 
556.40   1.24198080 
556.50   1.24265747 
556.60   1.24332076 
556.70   1.24397070 
556.80   1.24460731 
556.90   1.24523061 
557.00   1.24584062 
557.10   1.24643735 
557.20   1.24702083 
557.30   1.24759108 
557.40   1.24814811 
557.50   1.24869194 
557.60   1.24922259 
557.70   1.24974008 
557.80   1.25024442 
557.90   1.25073562 
558.00   1.25121371 
558.10   1.25167870 
558.20   1.25213060 
558.30   1.25256943 
558.40   1.25299519 
558.50   1.25340792 
558.60   1.25380761 
558.70   1.25419427 
558.80   1.25456793 
558.90   1.25492860 
559.00   1.25527627 
559.10   1.25561098 
559.20   1.25593272 
559.30   1.25624150 
559.40   1.25653734 
559.50   1.25682024 
559.60   1.25709021 
559.70   1.18075803 
559.80   1.18220525 
559.90   1.18363791 
560.00   1.18505607 
560.10   1.18645976 
560.20   1.18784906 
560.30   1.18922400 
560.40   1.19058463 
560.50   1.19193101 
560.60   1.19326318 
560.70   1.19458119 
560.80   1.19588509 
560.90   1.19717493 
561.00   1.19845074 
561.10   1.19971258 
561.20   1.20096048 
561.30   1.20219449 
561.40   1.20341466 
561.50   1.20462103 
561.60   1.20581363 
561.70   1.20699251 
561.80   1.20815770 
561.90   1.20930926 
562.00   1.21044721 
562.10   1.21157160 
562.20   1.21268246 
562.30   1.21377983 
562.40   1.21486374 
562.50   1.21593424 
562.60   1.21699136 
562.70   1.21803513 
562.80   1.21906558 
562.90   1.22008276 
563.00   1.22108669 
563.10   1.22207740 
563.20   1.22305494 
563.30   1.22401932 
563.40   1.22497059 
563.50   1.22590877 
563.60   1.22683389 
563.70   1.22774598 
563.80   1.22864507 
563.90   1.22953119 
564.00   1.23040437 
564.10   1.23126463 
564.20   1.23211201 
564.30   1.23294652 
564.40   1.23376820 
564.50   1.23457706 
564.60   1.23537314 
564.70   1.23615646 
564.80   1.23692705 
564.90   1.23768492 
565.00   1.23843010 
565.10   1.23916262 
565.20   1.23988249 
565.30   1.24058974 
565.40   1.24128439 
565.50   1.24196646 
565.60   1.24263598 
565.70   1.24329295 
565.80   1.24393741 
565.90   1.24456937 
566.00   1.24518885 
566.10   1.24579587 
566.20   1.24639045 
566.30   1.24697260 
566.40   1.24754234 
566.50   1.24809970 
566.60   1.24864468 
566.70   1.24917730 
566.80   1.24969758 
566.90   1.25020553 
567.00   1.25070117 
567.10   1.25118452 
567.20   1.25165558 
567.30   1.25211437 
567.40   1.25256091 
567.50   1.25299520 
567.60   1.25341727 
567.70   1.25382712 
567.80   1.25422476 
567.90   1.25461021 
568.00   1.25498348 
568.10   1.25534457 
568.20   1.25569351 
568.30   1.25603029 
568.40   1.25635494 
568.50   1.25666745 
568.60   1.25696784 
568.70   1.25725611 
568.80   1.25753228 
568.90   1.25779635 
569.00   1.18119312 
569.10   1.18259859 
569.20   1.18399037 
569.30   1.18536850 
569.40   1.18673304 
569.50   1.18808403 
569.60   1.18942152 
569.70   1.19074555 
569.80   1.19205617 
569.90   1.19335343 
570.00   1.19463736 
570.10   1.19590801 
570.20   1.19716542 
570.30   1.19840964 
570.40   1.19964070 
570.50   1.20085864 
570.60   1.20206351 
570.70   1.20325534 
570.80   1.20443417 
570.90   1.20560005 
571.00   1.20675300 
571.10   1.20789307 
571.20   1.20902029 
571.30   1.21013470 
571.40   1.21123633 
571.50   1.21232522 
571.60   1.21340140 
571.70   1.21446491 
571.80   1.21551577 
571.90   1.21655403 
572.00   1.21757971 
572.10   1.21859285 
572.20   1.21959348 
572.30   1.22058162 
572.40   1.22155731 
572.50   1.22252058 
572.60   1.22347146 
572.70   1.22440997 
572.80   1.22533615 
572.90   1.22625002 
573.00   1.22715161 
573.10   1.22804094 
573.20   1.22891805 
573.30   1.22978296 
573.40   1.23063570 
573.50   1.23147629 
573.60   1.23230475 
573.70   1.23312111 
573.80   1.23392540 
573.90   1.23471764 
574.00   1.23549784 
574.10   1.23626604 
574.20   1.23702226 
574.30   1.23776652 
574.40   1.23849883 
574.50   1.23921923 
574.60   1.23992772 
574.70   1.24062434 
574.80   1.24130910 
574.90   1.24198202 
575.00   1.24264313 
575.10   1.24329243 
575.20   1.24392995 
575.30   1.24455571 
575.40   1.24516972 
575.50   1.24577200 
575.60   1.24636257 
575.70   1.24694145 
575.80   1.24750865 
575.90   1.24806418 
576.00   1.24860807 
576.10   1.24914033 
576.20   1.24966097 
576.30   1.25017000 
576.40   1.25066745 
576.50   1.25115332 
576.60   1.25162764 
576.70   1.25209040 
576.80   1.25254163 
576.90   1.25298133 
577.00   1.25340953 
577.10   1.25382623 
577.20   1.25423144 
577.30   1.25462517 
577.40   1.25500744 
577.50   1.25537825 
577.60   1.25573762 
577.70   1.25608555 
577.80   1.25642206 
577.90   1.25674715 
578.00   1.25706083 
578.10   1.25736312 
578.20   1.25765401 
578.30   1.25793353 
578.40   1.25820166 
578.50   1.18027600 
578.60   1.18165556 
578.70   1.18302216 
578.80   1.18437584 
578.90   1.18571664 
579.00   1.18704460 
579.10   1.18835977 
579.20   1.18966219 
579.30   1.19095191 
579.40   1.19222896 
579.50   1.19349338 
579.60   1.19474522 
579.70   1.19598452 
579.80   1.19721130 
579.90   1.19842562 
580.00   1.19962751 
580.10   1.20081701 
580.20   1.20199414 
580.30   1.20315896 
580.40   1.20431150 
580.50   1.20545178 
580.60   1.20657985 
580.70   1.20769574 
580.80   1.20879949 
580.90   1.20989112 
581.00   1.21097067 
581.10   1.21203817 
581.20   1.21309366 
581.30   1.21413716 
581.40   1.21516870 
581.50   1.21618833 
581.60   1.21719606 
581.70   1.21819192 
581.80   1.21917595 
581.90   1.22014818 
582.00   1.22110862 
582.10   1.22205732 
582.20   1.22299429 
582.30   1.22391956 
582.40   1.22483317 
582.50   1.22573513 
582.60   1.22662547 
582.70   1.22750423 
582.80   1.22837141 
582.90   1.22922705 
583.00   1.23007117 
583.10   1.23090379 
583.20   1.23172495 
583.30   1.23253465 
583.40   1.23333293 
583.50   1.23411980 
583.60   1.23489529 
583.70   1.23565942 
583.80   1.23641221 
583.90   1.23715367 
584.00   1.23788384 
584.10   1.23860273 
584.20   1.23931036 
584.30   1.24000675 
584.40   1.24069192 
584.50   1.24136589 
584.60   1.24202867 
584.70   1.24268028 
584.80   1.24332075 
584.90   1.24395008 
585.00   1.24456830 
585.10   1.24517542 
585.20   1.24577146 
585.30   1.24635643 
585.40   1.24693035 
585.50   1.24749323 
585.60   1.24804509 
585.70   1.24858595 
585.80   1.24911582 
585.90   1.24963471 
586.00   1.25014263 
586.10   1.25063961 
586.20   1.25112564 
586.30   1.25160075 
586.40   1.25206495 
586.50   1.25251825 
586.60   1.25296066 
586.70   1.25339219 
586.80   1.25381286 
586.90   1.25422267 
587.00   1.25462164 
587.10   1.25500977 
587.20   1.25538709 
587.30   1.25575358 
587.40   1.25610927 
587.50   1.25645417 
587.60   1.25678828 
587.70   1.25711161 
587.80   1.25742418 
587.90   1.25772598 
588.00   1.25801702 
588.10   1.25829733 
588.20   1.25856689 
588.30   1.25882572 
588.40   1.18080475 
588.50   1.18214737 
588.60   1.18347770 
588.70   1.18479579 
588.80   1.18610168 
588.90   1.18739541 
589.00   1.18867701 
589.10   1.18994653 
589.20   1.19120401 
589.30   1.19244948 
589.40   1.19368298 
589.50   1.19490455 
589.60   1.19611422 
589.70   1.19731204 
589.80   1.19849803 
589.90   1.19967224 
590.00   1.20083469 
590.10   1.20198542 
590.20   1.20312446 
590.30   1.20425185 
590.40   1.20536762 
590.50   1.20647181 
590.60   1.20756443 
590.70   1.20864554 
590.80   1.20971514 
590.90   1.21077329 
591.00   1.21182000 
591.10   1.21285531 
591.20   1.21387924 
591.30   1.21489183 
591.40   1.21589310 
591.50   1.21688308 
591.60   1.21786179 
591.70   1.21882928 
591.80   1.21978555 
591.90   1.22073064 
592.00   1.22166458 
592.10   1.22258739 
592.20   1.22349909 
592.30   1.22439971 
592.40   1.22528927 
592.50   1.22616781 
592.60   1.22703533 
592.70   1.22789187 
592.80   1.22873745 
592.90   1.22957209 
593.00   1.23039581 
593.10   1.23120863 
593.20   1.23201059 
593.30   1.23280169 
593.40   1.23358196 
593.50   1.23435141 
593.60   1.23511008 
593.70   1.23585798 
593.80   1.23659512 
593.90   1.23732154 
594.00   1.23803724 
594.10   1.23874224 
594.20   1.23943657 
594.30   1.24012024 
594.40   1.24079327 
594.50   1.24145568 
594.60   1.24210748 
594.70   1.24274869 
594.80   1.24337933 
594.90   1.24399941 
595.00   1.24460894 
595.10   1.24520796 
595.20   1.24579646 
595.30   1.24637446 
595.40   1.24694199 
595.50   1.24749904 
595.60   1.24804565 
595.70   1.24858181 
595.80   1.24910755 
595.90   1.24962287 
596.00   1.25012780 
596.10   1.25062234 
596.20   1.25110650 
596.30   1.25158030 
596.40   1.25204375 
596.50   1.25249686 
596.60   1.25293964 
596.70   1.25337210 
596.80   1.25379426 
596.90   1.25420612 
597.00   1.25460769 
597.10   1.25499899 
597.20   1.25538002 
597.30   1.25575079 
597.40   1.25611132 
597.50   1.25646160 
597.60   1.25680166 
597.70   1.25713149 
597.80   1.25745111 
597.90   1.25776052 
598.00   1.25805973 
598.10   1.25834875 
598.20   1.25862758 
598.30   1.25889623 
598.40   1.25915472 
598.50   1.25940304 
598.60   1.18005438 
598.70   1.18137385 
598.80   1.18268160 
598.90   1.18397769 
599.00   1.18526213 
599.10   1.18653498 
599.20   1.18779626 
599.30   1.18904603 
599.40   1.19028430 
599.50   1.19151112 
599.60   1.19272653 
599.70   1.19393055 
599.80   1.19512323 
599.90   1.19630459 
600.00   1.19747467 
600.10   1.19863350 
600.20   1.19978112 
600.30   1.20091756 
600.40   1.20204285 
600.50   1.20315702 
600.60   1.20426010 
600.70   1.20535212 
600.80   1.20643311 
600.90   1.20750311 
601.00   1.20856214 
601.10   1.20961022 
601.20   1.21064740 
601.30   1.21167369 
601.40   1.21268912 
601.50   1.21369373 
601.60   1.21468753 
601.70   1.21567056 
601.80   1.21664283 
601.90   1.21760439 
602.00   1.21855524 
602.10   1.21949543 
602.20   1.22042496 
602.30   1.22134387 
602.40   1.22225218 
602.50   1.22314991 
602.60   1.22403709 
602.70   1.22491373 
602.80   1.22577987 
602.90   1.22663553 
603.00   1.22748072 
603.10   1.22831547 
603.20   1.22913979 
603.30   1.22995372 
603.40   1.23075727 
603.50   1.23155046 
603.60   1.23233330 
603.70   1.23310583 
603.80   1.23386806 
603.90   1.23462001 
604.00   1.23536170 
604.10   1.23609314 
604.20   1.23681436 
604.30   1.23752537 
604.40   1.23822619 
604.50   1.23891684 
604.60   1.23959733 
604.70   1.24026769 
604.80   1.24092792 
604.90   1.24157804 
605.00   1.24221807 
605.10   1.24284803 
605.20   1.24346793 
605.30   1.24407779 
605.40   1.24467761 
605.50   1.24526742 
605.60   1.24584723 
605.70   1.24641705 
605.80   1.24697689 
605.90   1.24752678 
606.00   1.24806672 
606.10   1.24859673 
606.20   1.24911681 
606.30   1.24962699 
606.40   1.25012727 
606.50   1.25061766 
606.60   1.25109818 
606.70   1.25156884 
606.80   1.25202965 
606.90   1.25248062 
607.00   1.25292176 
607.10   1.25335308 
607.20   1.25377459 
607.30   1.25418630 
607.40   1.25458822 
607.50   1.25498037 
607.60   1.25536274 
607.70   1.25573535 
607.80   1.25609821 
607.90   1.25645132 
608.00   1.25679470 
608.10   1.25712834 
608.20   1.25745227 
608.30   1.25776648 
608.40   1.25807099 
608.50   1.25836580 
608.60   1.25865092 
608.70   1.25892635 
608.80   1.25919210 
608.90   1.25944818 
609.00   1.25969459 
609.10   1.25993135 
609.20   1.17940267 
609.30   1.18069978 
609.40   1.18198568 
609.50   1.18326041 
609.60   1.18452403 
609.70   1.18577654 
609.80   1.18701801 
609.90   1.18824845 
610.00   1.18946790 
610.10   1.19067640 
610.20   1.19187398 
610.30   1.19306067 
610.40   1.19423650 
610.50   1.19540151 
610.60   1.19655573 
610.70   1.19769919 
610.80   1.19883192 
610.90   1.19995395 
611.00   1.20106531 
611.10   1.20216603 
611.20   1.20325614 
611.30   1.20433567 
611.40   1.20540465 
611.50   1.20646310 
611.60   1.20751105 
611.70   1.20854853 
611.80   1.20957557 
611.90   1.21059219 
612.00   1.21159842 
612.10   1.21259429 
612.20   1.21357982 
612.30   1.21455503 
612.40   1.21551996 
612.50   1.21647462 
612.60   1.21741904 
612.70   1.21835324 
612.80   1.21927725 
612.90   1.22019109 
613.00   1.22109478 
613.10   1.22198835 
613.20   1.22287181 
613.30   1.22374520 
613.40   1.22460852 
613.50   1.22546181 
613.60   1.22630508 
613.70   1.22713836 
613.80   1.22796165 
613.90   1.22877500 
614.00   1.22957840 
614.10   1.23037189 
614.20   1.23115549 
614.30   1.23192920 
614.40   1.23269305 
614.50   1.23344707 
614.60   1.23419126 
614.70   1.23492564 
614.80   1.23565023 
614.90   1.23636506 
615.00   1.23707013 
615.10   1.23776546 
615.20   1.23845107 
615.30   1.23912698 
615.40   1.23979319 
615.50   1.24044974 
615.60   1.24109662 
615.70   1.24173386 
615.80   1.24236148 
615.90   1.24297948 
616.00   1.24358788 
616.10   1.24418669 
616.20   1.24477594 
616.30   1.24535563 
616.40   1.24592577 
616.50   1.24648638 
616.60   1.24703747 
616.70   1.24757906 
616.80   1.24811115 
616.90   1.24863376 
617.00   1.24914690 
617.10   1.24965059 
617.20   1.25014483 
617.30   1.25062963 
617.40   1.25110501 
617.50   1.25157097 
617.60   1.25202753 
617.70   1.25247470 
617.80   1.25291249 
617.90   1.25334090 
618.00   1.25375996 
618.10   1.25416965 
618.20   1.25457001 
618.30   1.25496102 
618.40   1.25534271 
618.50   1.25571508 
618.60   1.25607814 
618.70   1.25643190 
618.80   1.25677637 
618.90   1.25711155 
619.00   1.25743745 
619.10   1.25775407 
619.20   1.25806143 
619.30   1.25835954 
619.40   1.25864839 
619.50   1.25892800 
619.60   1.25919837 
619.70   1.25945950 
619.80   1.25971141 
619.90   1.25995409 
620.00   1.26018756 
620.10   1.26041182 
620.20   1.17884883 
620.30   1.18012426 
620.40   1.18138896 
620.50   1.18264295 
620.60   1.18388628 
620.70   1.18511897 
620.80   1.18634106 
620.90   1.18755258 
621.00   1.18875357 
621.10   1.18994405 
621.20   1.19112406 
621.30   1.19229363 
621.40   1.19345279 
621.50   1.19460157 
621.60   1.19574000 
621.70   1.19686811 
621.80   1.19798592 
621.90   1.19909348 
622.00   1.20019079 
622.10   1.20127791 
622.20   1.20235484 
622.30   1.20342162 
622.40   1.20447828 
622.50   1.20552484 
622.60   1.20656132 
622.70   1.20758777 
622.80   1.20860419 
622.90   1.20961062 
623.00   1.21060707 
623.10   1.21159359 
623.20   1.21257018 
623.30   1.21353687 
623.40   1.21449369 
623.50   1.21544066 
623.60   1.21637781 
623.70   1.21730515 
623.80   1.21822270 
623.90   1.21913050 
624.00   1.22002856 
624.10   1.22091690 
624.20   1.22179555 
624.30   1.22266452 
624.40   1.22352384 
624.50   1.22437353 
624.60   1.22521360 
624.70   1.22604408 
624.80   1.22686498 
624.90   1.22767633 
625.00   1.22847814 
625.10   1.22927044 
625.20   1.23005323 
625.30   1.23082655 
625.40   1.23159040 
625.50   1.23234481 
625.60   1.23308979 
625.70   1.23382535 
625.80   1.23455153 
625.90   1.23526832 
626.00   1.23597575 
626.10   1.23667384 
626.20   1.23736260 
626.30   1.23804205 
626.40   1.23871219 
626.50   1.23937305 
626.60   1.24002465 
626.70   1.24066699 
626.80   1.24130009 
626.90   1.24192396 
627.00   1.24253862 
627.10   1.24314409 
627.20   1.24374037 
627.30   1.24432748 
627.40   1.24490543 
627.50   1.24547423 
627.60   1.24603390 
627.70   1.24658446 
627.80   1.24712590 
627.90   1.24765824 
628.00   1.24818150 
628.10   1.24869569 
628.20   1.24920081 
628.30   1.24969688 
628.40   1.25018391 
628.50   1.25066191 
628.60   1.25113089 
628.70   1.25159086 
628.80   1.25204183 
628.90   1.25248381 
629.00   1.25291681 
629.10   1.25334084 
629.20   1.25375591 
629.30   1.25416202 
629.40   1.25455919 
629.50   1.25494742 
629.60   1.25532673 
629.70   1.25569711 
629.80   1.25605858 
629.90   1.25641115 
630.00   1.25675482 
630.10   1.25708960 
630.20   1.25741550 
630.30   1.25773253 
630.40   1.25804068 
630.50   1.25833998 
630.60   1.25863042 
630.70   1.25891200 
630.80   1.25918475 
630.90   1.25944865 
631.00   1.25970373 
631.10   1.25994997 
631.20   1.26018740 
631.30   1.26041601 
631.40   1.26063580 
631.50   1.26084679 
631.60   1.17839294 
631.70   1.17964729 
631.80   1.18089133 
631.90   1.18212509 
632.00   1.18334860 
632.10   1.18456189 
632.20   1.18576499 
632.30   1.18695794 
632.40   1.18814077 
632.50   1.18931350 
632.60   1.19047616 
632.70   1.19162880 
632.80   1.19277142 
632.90   1.19390407 
633.00   1.19502677 
633.10   1.19613955 
633.20   1.19724243 
633.30   1.19833545 
633.40   1.19941863 
633.50   1.20049200 
633.60   1.20155558 
633.70   1.20260940 
633.80   1.20365349 
633.90   1.20468787 
634.00   1.20571256 
634.10   1.20672760 
634.20   1.20773300 
634.30   1.20872879 
634.40   1.20971499 
634.50   1.21069163 
634.60   1.21165872 
634.70   1.21261630 
634.80   1.21356439 
634.90   1.21450300 
635.00   1.21543216 
635.10   1.21635189 
635.20   1.21726221 
635.30   1.21816315 
635.40   1.21905471 
635.50   1.21993694 
635.60   1.22080984 
635.70   1.22167343 
635.80   1.22252773 
635.90   1.22337277 
636.00   1.22420857 
636.10   1.22503513 
636.20   1.22585249 
636.30   1.22666065 
636.40   1.22745964 
636.50   1.22824948 
636.60   1.22903018 
636.70   1.22980176 
636.80   1.23056423 
636.90   1.23131763 
637.00   1.23206195 
637.10   1.23279721 
637.20   1.23352345 
637.30   1.23424066 
637.40   1.23494886 
637.50   1.23564808 
637.60   1.23633832 
637.70   1.23701961 
637.80   1.23769194 
637.90   1.23835535 
638.00   1.23900985 
638.10   1.23965544 
638.20   1.24029214 
638.30   1.24091997 
638.40   1.24153894 
638.50   1.24214907 
638.60   1.24275036 
638.70   1.24334283 
638.80   1.24392649 
638.90   1.24450135 
639.00   1.24506743 
639.10   1.24562473 
639.20   1.24617328 
639.30   1.24671308 
639.40   1.24724414 
639.50   1.24776647 
639.60   1.24828009 
639.70   1.24878501 
639.80   1.24928123 
639.90   1.24976877 
640.00   1.25024763 
640.10   1.25071783 
640.20   1.25117938 
640.30   1.25163228 
640.40   1.25207655 
640.50   1.25251219 
640.60   1.25293921 
640.70   1.25335763 
640.80   1.25376745 
640.90   1.25416868 
641.00   1.25456132 
641.10   1.25494539 
641.20   1.25532090 
641.30   1.25568784 
641.40   1.25604624 
641.50   1.25639609 
641.60   1.25673740 
641.70   1.25707018 
641.80   1.25739444 
641.90   1.25771019 
642.00   1.25801742 
642.10   1.25831615 
642.20   1.25860638 
642.30   1.25888812 
642.40   1.25916137 
642.50   1.25942614 
642.60   1.25968244 
642.70   1.25993027 
642.80   1.26016963 
642.90   1.26040053 
643.00   1.26062297 
643.10   1.26083696 
643.20   1.26104251 
643.30   1.26123961 
643.40   1.17803589 
643.50   1.17926964 
643.60   1.18049346 
643.70   1.18170738 
643.80   1.18291144 
643.90   1.18410566 
644.00   1.18529008 
644.10   1.18646472 
644.20   1.18762961 
644.30   1.18878479 
644.40   1.18993027 
644.50   1.19106609 
644.60   1.19219228 
644.70   1.19330886 
644.80   1.19441586 
644.90   1.19551330 
645.00   1.19660122 
645.10   1.19767963 
645.20   1.19874857 
645.30   1.19980806 
645.40   1.20085812 
645.50   1.20189878 
645.60   1.20293007 
645.70   1.20395200 
645.80   1.20496460 
645.90   1.20596790 
646.00   1.20696191 
646.10   1.20794667 
646.20   1.20892219 
646.30   1.20988849 
646.40   1.21084561 
646.50   1.21179355 
646.60   1.21273235 
646.70   1.21366201 
646.80   1.21458257 
646.90   1.21549405 
647.00   1.21639645 
647.10   1.21728982 
647.20   1.21817415 
647.30   1.21904949 
647.40   1.21991583 
647.50   1.22077321 
647.60   1.22162164 
647.70   1.22246114 
647.80   1.22329173 
647.90   1.22411342 
648.00   1.22492624 
648.10   1.22573020 
648.20   1.22652532 
648.30   1.22731162 
648.40   1.22808911 
648.50   1.22885782 
648.60   1.22961774 
648.70   1.23036892 
648.80   1.23111135 
648.90   1.23184506 
649.00   1.23257005 
649.10   1.23328636 
649.20   1.23399398 
649.30   1.23469294 
649.40   1.23538326 
649.50   1.23606493 
649.60   1.23673799 
649.70   1.23740244 
649.80   1.23805830 
649.90   1.23870558 
650.00   1.23934429 
650.10   1.23997445 
650.20   1.24059607 
650.30   1.24120917 
650.40   1.24181375 
650.50   1.24240983 
650.60   1.24299743 
650.70   1.24357654 
650.80   1.24414719 
650.90   1.24470939 
651.00   1.24526314 
651.10   1.24580846 
651.20   1.24634537 
651.30   1.24687386 
651.40   1.24739396 
651.50   1.24790567 
651.60   1.24840900 
651.70   1.24890396 
651.80   1.24939057 
651.90   1.24986883 
652.00   1.25033875 
652.10   1.25080034 
652.20   1.25125362 
652.30   1.25169858 
652.40   1.25213524 
652.50   1.25256361 
652.60   1.25298370 
652.70   1.25339551 
652.80   1.25379905 
652.90   1.25419433 
653.00   1.25458136 
653.10   1.25496014 
653.20   1.25533069 
653.30   1.25569301 
653.40   1.25604711 
653.50   1.25639299 
653.60   1.25673066 
653.70   1.25706013 
653.80   1.25738140 
653.90   1.25769449 
654.00   1.25799939 
654.10   1.25829611 
654.20   1.25858467 
654.30   1.25886505 
654.40   1.25913728 
654.50   1.25940135 
654.60   1.25965727 
654.70   1.25990505 
654.80   1.26014468 
654.90   1.26037618 
655.00   1.26059955 
655.10   1.26081479 
655.20   1.26102191 
655.30   1.26122091 
655.40   1.26141180 
655.50   1.26159457 
655.60   1.17656770 
655.70   1.17779051 
655.80   1.17900372 
655.90   1.18020737 
656.00   1.18140148 
656.10   1.18258608 
656.20   1.18376120 
656.30   1.18492688 
656.40   1.18608313 
656.50   1.18722998 
656.60   1.18836747 
656.70   1.18949561 
656.80   1.19061445 
656.90   1.19172399 
657.00   1.19282427 
657.10   1.19391531 
657.20   1.19499714 
657.30   1.19606979 
657.40   1.19713327 
657.50   1.19818761 
657.60   1.19923285 
657.70   1.20026899 
657.80   1.20129606 
657.90   1.20231410 
658.00   1.20332311 
658.10   1.20432312 
658.20   1.20531416 
658.30   1.20629625 
658.40   1.20726941 
658.50   1.20823366 
658.60   1.20918902 
658.70   1.21013551 
658.80   1.21107316 
658.90   1.21200198 
659.00   1.21292199 
659.10   1.21383322 
659.20   1.21473569 
659.30   1.21562941 
659.40   1.21651440 
659.50   1.21739068 
659.60   1.21825828 
659.70   1.21911720 
659.80   1.21996747 
659.90   1.22080911 
660.00   1.22164214 
660.10   1.22246656 
660.20   1.22328240 
660.30   1.22408968 
660.40   1.22488841 
660.50   1.22567861 
660.60   1.22646030 
660.70   1.22723349 
660.80   1.22799820 
660.90   1.22875444 
661.00   1.22950223 
661.10   1.23024159 
661.20   1.23097253 
661.30   1.23169506 
661.40   1.23240921 
661.50   1.23311498 
661.60   1.23381238 
661.70   1.23450144 
661.80   1.23518217 
661.90   1.23585458 
662.00   1.23651869 
662.10   1.23717450 
662.20   1.23782203 
662.30   1.23846130 
662.40   1.23909232 
662.50   1.23971509 
662.60   1.24032964 
662.70   1.24093597 
662.80   1.24153410 
662.90   1.24212403 
663.00   1.24270579 
663.10   1.24327937 
663.20   1.24384480 
663.30   1.24440209 
663.40   1.24495123 
663.50   1.24549226 
663.60   1.24602516 
663.70   1.24654997 
663.80   1.24706668 
663.90   1.24757531 
664.00   1.24807587 
664.10   1.24856836 
664.20   1.24905280 
664.30   1.24952919 
664.40   1.24999755 
664.50   1.25045788 
664.60   1.25091019 
664.70   1.25135449 
664.80   1.25179080 
664.90   1.25221911 
665.00   1.25263943 
665.10   1.25305179 
665.20   1.25345617 
665.30   1.25385259 
665.40   1.25424106 
665.50   1.25462159 
665.60   1.25499417 
665.70   1.25535883 
665.80   1.25571556 
665.90   1.25606438 
666.00   1.25640528 
666.10   1.25673828 
666.20   1.25706338 
666.30   1.25738059 
666.40   1.25768991 
666.50   1.25799135 
666.60   1.25828492 
666.70   1.25857062 
666.80   1.25884846 
666.90   1.25911843 
667.00   1.25938056 
667.10   1.25963483 
667.20   1.25988126 
667.30   1.26011985 
667.40   1.26035061 
667.50   1.26057354 
667.60   1.26078864 
667.70   1.26099592 
667.80   1.26119538 
667.90   1.26138702 
668.00   1.26157086 
668.10   1.26174689 
668.20   1.26191511 
668.30   1.26207553 
668.40   1.17645695 
668.50   1.17765884 
668.60   1.17885148 
668.70   1.18003490 
668.80   1.18120912 
668.90   1.18237417 
669.00   1.18353007 
669.10   1.18467686 
669.20   1.18581456 
669.30   1.18694320 
669.40   1.18806280 
669.50   1.18917338 
669.60   1.19027498 
669.70   1.19136762 
669.80   1.19245132 
669.90   1.19352611 
670.00   1.19459201 
670.10   1.19564904 
670.20   1.19669723 
670.30   1.19773660 
670.40   1.19876718 
670.50   1.19978898 
670.60   1.20080203 
670.70   1.20180636 
670.80   1.20280197 
670.90   1.20378891 
671.00   1.20476718 
671.10   1.20573680 
671.20   1.20669781 
671.30   1.20765021 
671.40   1.20859403 
671.50   1.20952930 
671.60   1.21045602 
671.70   1.21137422 
671.80   1.21228392 
671.90   1.21318513 
672.00   1.21407788 
672.10   1.21496219 
672.20   1.21583807 
672.30   1.21670554 
672.40   1.21756462 
672.50   1.21841533 
672.60   1.21925768 
672.70   1.22009169 
672.80   1.22091739 
672.90   1.22173477 
673.00   1.22254388 
673.10   1.22334471 
673.20   1.22413728 
673.30   1.22492162 
673.40   1.22569773 
673.50   1.22646564 
673.60   1.22722535 
673.70   1.22797689 
673.80   1.22872027 
673.90   1.22945550 
674.00   1.23018260 
674.10   1.23090157 
674.20   1.23161245 
674.30   1.23231524 
674.40   1.23300995 
674.50   1.23369659 
674.60   1.23437519 
674.70   1.23504576 
674.80   1.23570830 
674.90   1.23636283 
675.00   1.23700937 
675.10   1.23764792 
675.20   1.23827850 
675.30   1.23890112 
675.40   1.23951579 
675.50   1.24012252 
675.60   1.24072134 
675.70   1.24131223 
675.80   1.24189523 
675.90   1.24247034 
676.00   1.24303757 
676.10   1.24359693 
676.20   1.24414843 
676.30   1.24469208 
676.40   1.24522790 
676.50   1.24575589 
676.60   1.24627606 
676.70   1.24678842 
676.80   1.24729299 
676.90   1.24778977 
677.00   1.24827877 
677.10   1.24876000 
677.20   1.24923346 
677.30   1.24969918 
677.40   1.25015715 
677.50   1.25060739 
677.60   1.25104990 
677.70   1.25148470 
677.80   1.25191178 
677.90   1.25233116 
678.00   1.25274284 
678.10   1.25314684 
678.20   1.25354316 
678.30   1.25393181 
678.40   1.25431279 
678.50   1.25468611 
678.60   1.25505178 
678.70   1.25540981 
678.80   1.25576019 
678.90   1.25610295 
679.00   1.25643808 
679.10   1.25676559 
679.20   1.25708549 
679.30   1.25739778 
679.40   1.25770247 
679.50   1.25799956 
679.60   1.25828906 
679.70   1.25857097 
679.80   1.25884530 
679.90   1.25911206 
680.00   1.25937125 
680.10   1.25962287 
680.20   1.25986692 
680.30   1.26010342 
680.40   1.26033237 
680.50   1.26055377 
680.60   1.26076762 
680.70   1.26097393 
680.80   1.26117271 
680.90   1.26136395 
681.00   1.26154765 
681.10   1.26172384 
681.20   1.26189249 
681.30   1.26205363 
681.40   1.26220725 
681.50   1.26235335 
681.60   1.17527264 
681.70   1.17646245 
681.80   1.17764331 
681.90   1.17881523 
682.00   1.17997826 
682.10   1.18113241 
682.20   1.18227771 
682.30   1.18341419 
682.40   1.18454187 
682.50   1.18566078 
682.60   1.18677093 
682.70   1.18787237 
682.80   1.18896511 
682.90   1.19004917 
683.00   1.19112458 
683.10   1.19219136 
683.20   1.19324953 
683.30   1.19429913 
683.40   1.19534016 
683.50   1.19637266 
683.60   1.19739664 
683.70   1.19841213 
683.80   1.19941915 
683.90   1.20041771 
684.00   1.20140785 
684.10   1.20238958 
684.20   1.20336292 
684.30   1.20432789 
684.40   1.20528452 
684.50   1.20623281 
684.60   1.20717280 
684.70   1.20810450 
684.80   1.20902793 
684.90   1.20994311 
685.00   1.21085006 
685.10   1.21174880 
685.20   1.21263934 
685.30   1.21352170 
685.40   1.21439591 
685.50   1.21526197 
685.60   1.21611991 
685.70   1.21696974 
685.80   1.21781148 
685.90   1.21864515 
686.00   1.21947076 
686.10   1.22028833 
686.20   1.22109787 
686.30   1.22189941 
686.40   1.22269296 
686.50   1.22347853 
686.60   1.22425613 
686.70   1.22502579 
686.80   1.22578752 
686.90   1.22654133 
687.00   1.22728724 
687.10   1.22802527 
687.20   1.22875541 
687.30   1.22947770 
687.40   1.23019215 
687.50   1.23089876 
687.60   1.23159755 
687.70   1.23228854 
687.80   1.23297173 
687.90   1.23364715 
688.00   1.23431480 
688.10   1.23497470 
688.20   1.23562685 
688.30   1.23627128 
688.40   1.23690798 
688.50   1.23753699 
688.60   1.23815830 
688.70   1.23877193 
688.80   1.23937788 
688.90   1.23997618 
689.00   1.24056683 
689.10   1.24114985 
689.20   1.24172523 
689.30   1.24229300 
689.40   1.24285317 
689.50   1.24340574 
689.60   1.24395073 
689.70   1.24448814 
689.80   1.24501798 
689.90   1.24554027 
690.00   1.24605502 
690.10   1.24656222 
690.20   1.24706190 
690.30   1.24755406 
690.40   1.24803871 
690.50   1.24851587 
690.60   1.24898552 
690.70   1.24944770 
690.80   1.24990240 
690.90   1.25034963 
691.00   1.25078940 
691.10   1.25122173 
691.20   1.25164660 
691.30   1.25206404 
691.40   1.25247406 
691.50   1.25287665 
691.60   1.25327183 
691.70   1.25365960 
691.80   1.25403997 
691.90   1.25441294 
692.00   1.25477853 
692.10   1.25513674 
692.20   1.25548757 
692.30   1.25583104 
692.40   1.25616714 
692.50   1.25649589 
692.60   1.25681729 
692.70   1.25713134 
692.80   1.25743805 
692.90   1.25773743 
693.00   1.25802948 
693.10   1.25831421 
693.20   1.25859162 
693.30   1.25886172 
693.40   1.25912450 
693.50   1.25937998 
693.60   1.25962817 
693.70   1.25986905 
693.80   1.26010265 
693.90   1.26032895 
694.00   1.26054798 
694.10   1.26075972 
694.20   1.26096419 
694.30   1.26116138 
694.40   1.26135131 
694.50   1.26153397 
694.60   1.26170937 
694.70   1.26187751 
694.80   1.26203839 
694.90   1.26219202 
695.00   1.26233839 
695.10   1.26247752 
695.20   1.26260940 
695.30   1.26273404 
695.40   1.17541876 
695.50   1.17658698 
695.60   1.17774656 
695.70   1.17889752 
695.80   1.18003990 
695.90   1.18117370 
696.00   1.18229897 
696.10   1.18341572 
696.20   1.18452398 
696.30   1.18562377 
696.40   1.18671511 
696.50   1.18779804 
696.60   1.18887256 
696.70   1.18993871 
696.80   1.19099650 
696.90   1.19204596 
697.00   1.19308712 
697.10   1.19411998 
697.20   1.19514458 
697.30   1.19616094 
697.40   1.19716907 
697.50   1.19816900 
697.60   1.19916074 
697.70   1.20014433 
697.80   1.20111977 
697.90   1.20208708 
698.00   1.20304630 
698.10   1.20399743 
698.20   1.20494050 
698.30   1.20587552 
698.40   1.20680252 
698.50   1.20772150 
698.60   1.20863250 
698.70   1.20953552 
698.80   1.21043060 
698.90   1.21131773 
699.00   1.21219695 
699.10   1.21306826 
699.20   1.21393169 
699.30   1.21478725 
699.40   1.21563496 
699.50   1.21647483 
699.60   1.21730689 
699.70   1.21813114 
699.80   1.21894761 
699.90   1.21975630 
700.00   1.22055724 
700.10   1.22135044 
700.20   1.22213592 
700.30   1.22291368 
700.40   1.22368374 
700.50   1.22444613 
700.60   1.22520085 
700.70   1.22594791 
700.80   1.22668734 
700.90   1.22741914 
701.00   1.22814333 
701.10   1.22885992 
701.20   1.22956893 
701.30   1.23027037 
701.40   1.23096424 
701.50   1.23165058 
701.60   1.23232937 
701.70   1.23300065 
701.80   1.23366442 
701.90   1.23432069 
702.00   1.23496948 
702.10   1.23561079 
702.20   1.23624465 
702.30   1.23687105 
702.40   1.23749002 
702.50   1.23810156 
702.60   1.23870568 
702.70   1.23930240 
702.80   1.23989172 
702.90   1.24047366 
703.00   1.24104822 
703.10   1.24161543 
703.20   1.24217527 
703.30   1.24272778 
703.40   1.24327295 
703.50   1.24381080 
703.60   1.24434133 
703.70   1.24486456 
703.80   1.24538049 
703.90   1.24588914 
704.00   1.24639050 
704.10   1.24688460 
704.20   1.24737144 
704.30   1.24785102 
704.40   1.24832337 
704.50   1.24878847 
704.60   1.24924635 
704.70   1.24969701 
704.80   1.25014046 
704.90   1.25057670 
705.00   1.25100575 
705.10   1.25142761 
705.20   1.25184229 
705.30   1.25224979 
705.40   1.25265013 
705.50   1.25304330 
705.60   1.25342932 
705.70   1.25380819 
705.80   1.25417992 
705.90   1.25454452 
706.00   1.25490199 
706.10   1.25525234 
706.20   1.25559557 
706.30   1.25593169 
706.40   1.25626070 
706.50   1.25658262 
706.60   1.25689744 
706.70   1.25720518 
706.80   1.25750583 
706.90   1.25779940 
707.00   1.25808590 
707.10   1.25836533 
707.20   1.25863770 
707.30   1.25890301 
707.40   1.25916126 
707.50   1.25941247 
707.60   1.25965662 
707.70   1.25989374 
707.80   1.26012382 
707.90   1.26034686 
708.00   1.26056288 
708.10   1.26077186 
708.20   1.26097383 
708.30   1.26116877 
708.40   1.26135670 
708.50   1.26153761 
708.60   1.26171152 
708.70   1.26187841 
708.80   1.26203831 
708.90   1.26219119 
709.00   1.26233708 
709.10   1.26247598 
709.20   1.26260787 
709.30   1.26273278 
709.40   1.26285069 
709.50   1.26296162 
709.60   1.26306556 
709.70   1.17339313 
709.80   1.17455569 
709.90   1.17570987 
710.00   1.17685570 
710.10   1.17799319 
710.20   1.17912238 
710.30   1.18024327 
710.40   1.18135591 
710.50   1.18246031 
710.60   1.18355650 
710.70   1.18464450 
710.80   1.18572432 
710.90   1.18679600 
711.00   1.18785955 
711.10   1.18891501 
711.20   1.18996238 
711.30   1.19100168 
711.40   1.19203296 
711.50   1.19305621 
711.60   1.19407146 
711.70   1.19507874 
711.80   1.19607806 
711.90   1.19706944 
712.00   1.19805291 
712.10   1.19902848 
712.20   1.19999617 
712.30   1.20095600 
712.40   1.20190798 
712.50   1.20285215 
712.60   1.20378851 
712.70   1.20471709 
712.80   1.20563790 
712.90   1.20655096 
713.00   1.20745629 
713.10   1.20835390 
713.20   1.20924382 
713.30   1.21012605 
713.40   1.21100062 
713.50   1.21186754 
713.60   1.21272684 
713.70   1.21357851 
713.80   1.21442259 
713.90   1.21525909 
714.00   1.21608802 
714.10   1.21690940 
714.20   1.21772324 
714.30   1.21852956 
714.40   1.21932837 
714.50   1.22011969 
714.60   1.22090353 
714.70   1.22167992 
714.80   1.22244885 
714.90   1.22321035 
715.00   1.22396443 
715.10   1.22471110 
715.20   1.22545037 
715.30   1.22618227 
715.40   1.22690680 
715.50   1.22762398 
715.60   1.22833382 
715.70   1.22903632 
715.80   1.22973152 
715.90   1.23041941 
716.00   1.23110001 
716.10   1.23177333 
716.20   1.23243938 
716.30   1.23309818 
716.40   1.23374973 
716.50   1.23439405 
716.60   1.23503116 
716.70   1.23566105 
716.80   1.23628374 
716.90   1.23689925 
717.00   1.23750758 
717.10   1.23810874 
717.20   1.23870275 
717.30   1.23928961 
717.40   1.23986933 
717.50   1.24044193 
717.60   1.24100742 
717.70   1.24156580 
717.80   1.24211708 
717.90   1.24266127 
718.00   1.24319839 
718.10   1.24372844 
718.20   1.24425143 
718.30   1.24476737 
718.40   1.24527627 
718.50   1.24577813 
718.60   1.24627297 
718.70   1.24676080 
718.80   1.24724162 
718.90   1.24771543 
719.00   1.24818226 
719.10   1.24864210 
719.20   1.24909496 
719.30   1.24954086 
719.40   1.24997979 
719.50   1.25041177 
719.60   1.25083680 
719.70   1.25125490 
719.80   1.25166606 
719.90   1.25207029 
720.00   1.25246761 
720.10   1.25285801 
720.20   1.25324151 
720.30   1.25361811 
720.40   1.25398781 
720.50   1.25435063 
720.60   1.25470656 
720.70   1.25505562 
720.80   1.25539781 
720.90   1.25573314 
721.00   1.25606160 
721.10   1.25638321 
721.20   1.25669798 
721.30   1.25700590 
721.40   1.25730698 
721.50   1.25760123 
721.60   1.25788866 
721.70   1.25816926 
721.80   1.25844303 
721.90   1.25871000 
722.00   1.25897015 
722.10   1.25922350 
722.20   1.25947005 
722.30   1.25970980 
722.40   1.25994275 
722.50   1.26016892 
722.60   1.26038829 
722.70   1.26060089 
722.80   1.26080670 
722.90   1.26100574 
723.00   1.26119801 
723.10   1.26138350 
723.20   1.26156223 
723.30   1.26173419 
723.40   1.26189940 
723.50   1.26205784 
723.60   1.26220953 
723.70   1.26235446 
723.80   1.26249264 
723.90   1.26262408 
724.00   1.26274876 
724.10   1.26286671 
724.20   1.26297790 
724.30   1.26308236 
724.40   1.26318008 
724.50   1.26327105 
724.60   1.26335530 
724.70   1.17385530 
724.80   1.17499448 
724.90   1.17612559 
725.00   1.17724863 
725.10   1.17836365 
725.20   1.17947066 
725.30   1.18056968 
725.40   1.18166074 
725.50   1.18274385 
725.60   1.18381905 
725.70   1.18488634 
725.80   1.18594576 
725.90   1.18699732 
726.00   1.18804105 
726.10   1.18907696 
726.20   1.19010508 
726.30   1.19112542 
726.40   1.19213801 
726.50   1.19314287 
726.60   1.19414001 
726.70   1.19512945 
726.80   1.19611122 
726.90   1.19708533 
727.00   1.19805180 
727.10   1.19901065 
727.20   1.19996190 
727.30   1.20090556 
727.40   1.20184166 
727.50   1.20277021 
727.60   1.20369123 
727.70   1.20460473 
727.80   1.20551074 
727.90   1.20640926 
728.00   1.20730033 
728.10   1.20818395 
728.20   1.20906013 
728.30   1.20992890 
728.40   1.21079028 
728.50   1.21164427 
728.60   1.21249089 
728.70   1.21333017 
728.80   1.21416210 
728.90   1.21498672 
729.00   1.21580403 
729.10   1.21661405 
729.20   1.21741679 
729.30   1.21821227 
729.40   1.21900050 
729.50   1.21978149 
729.60   1.22055527 
729.70   1.22132183 
729.80   1.22208121 
729.90   1.22283340 
730.00   1.22357843 
730.10   1.22431631 
730.20   1.22504704 
730.30   1.22577065 
730.40   1.22648714 
730.50   1.22719653 
730.60   1.22789883 
730.70   1.22859405 
730.80   1.22928220 
730.90   1.22996330 
731.00   1.23063736 
731.10   1.23130439 
731.20   1.23196439 
731.30   1.23261739 
731.40   1.23326339 
731.50   1.23390241 
731.60   1.23453445 
731.70   1.23515952 
731.80   1.23577764 
731.90   1.23638882 
732.00   1.23699306 
732.10   1.23759038 
732.20   1.23818079 
732.30   1.23876429 
732.40   1.23934090 
732.50   1.23991063 
732.60   1.24047348 
732.70   1.24102947 
732.80   1.24157860 
732.90   1.24212088 
733.00   1.24265633 
733.10   1.24318494 
733.20   1.24370674 
733.30   1.24422172 
733.40   1.24472991 
733.50   1.24523129 
733.60   1.24572589 
733.70   1.24621371 
733.80   1.24669476 
733.90   1.24716905 
734.00   1.24763658 
734.10   1.24809737 
734.20   1.24855141 
734.30   1.24899872 
734.40   1.24943931 
734.50   1.24987318 
734.60   1.25030034 
734.70   1.25072079 
734.80   1.25113454 
734.90   1.25154160 
735.00   1.25194198 
735.10   1.25233568 
735.20   1.25272271 
735.30   1.25310307 
735.40   1.25347678 
735.50   1.25384383 
735.60   1.25420423 
735.70   1.25455799 
735.80   1.25490511 
735.90   1.25524560 
736.00   1.25557947 
736.10   1.25590672 
736.20   1.25622735 
736.30   1.25654137 
736.40   1.25684878 
736.50   1.25714960 
736.60   1.25744382 
736.70   1.25773145 
736.80   1.25801249 
736.90   1.25828695 
737.00   1.25855483 
737.10   1.25881614 
737.20   1.25907088 
737.30   1.25931906 
737.40   1.25956067 
737.50   1.25979573 
737.60   1.26002423 
737.70   1.26024618 
737.80   1.26046158 
737.90   1.26067044 
738.00   1.26087276 
738.10   1.26106854 
738.20   1.26125779 
738.30   1.26144051 
738.40   1.26161670 
738.50   1.26178636 
738.60   1.26194950 
738.70   1.26210612 
738.80   1.26225622 
738.90   1.26239980 
739.00   1.26253687 
739.10   1.26266743 
739.20   1.26279149 
739.30   1.26290903 
739.40   1.26302007 
739.50   1.26312460 
739.60   1.26322263 
739.70   1.26331416 
739.80   1.26339919 
739.90   1.26347772 
740.00   1.26354976 
740.10   1.26361530 
740.20   1.17221553 
740.30   1.17334604 
740.40   1.17446874 
740.50   1.17558363 
740.60   1.17669075 
740.70   1.17779011 
740.80   1.17888175 
740.90   1.17996567 
741.00   1.18104190 
741.10   1.18211046 
741.20   1.18317138 
741.30   1.18422466 
741.40   1.18527034 
741.50   1.18630844 
741.60   1.18733897 
741.70   1.18836194 
741.80   1.18937740 
741.90   1.19038534 
742.00   1.19138579 
742.10   1.19237878 
742.20   1.19336431 
742.30   1.19434241 
742.40   1.19531309 
742.50   1.19627637 
742.60   1.19723228 
742.70   1.19818082 
742.80   1.19912202 
742.90   1.20005589 
743.00   1.20098246 
743.10   1.20190173 
743.20   1.20281372 
743.30   1.20371845 
743.40   1.20461594 
743.50   1.20550621 
743.60   1.20638926 
743.70   1.20726512 
743.80   1.20813379 
743.90   1.20899531 
744.00   1.20984967 
744.10   1.21069690 
744.20   1.21153701 
744.30   1.21237002 
744.40   1.21319594 
744.50   1.21401478 
744.60   1.21482656 
744.70   1.21563130 
744.80   1.21642900 
744.90   1.21721969 
745.00   1.21800337 
745.10   1.21878006 
745.20   1.21954977 
745.30   1.22031251 
745.40   1.22106830 
745.50   1.22181716 
745.60   1.22255909 
745.70   1.22329410 
745.80   1.22402222 
745.90   1.22474344 
746.00   1.22545779 
746.10   1.22616527 
746.20   1.22686590 
746.30   1.22755969 
746.40   1.22824665 
746.50   1.22892679 
746.60   1.22960013 
746.70   1.23026667 
746.80   1.23092642 
746.90   1.23157940 
747.00   1.23222562 
747.10   1.23286509 
747.20   1.23349782 
747.30   1.23412381 
747.40   1.23474308 
747.50   1.23535564 
747.60   1.23596150 
747.70   1.23656067 
747.80   1.23715316 
747.90   1.23773898 
748.00   1.23831813 
748.10   1.23889063 
748.20   1.23945649 
748.30   1.24001571 
748.40   1.24056831 
748.50   1.24111429 
748.60   1.24165366 
748.70   1.24218643 
748.80   1.24271261 
748.90   1.24323221 
749.00   1.24374524 
749.10   1.24425170 
749.20   1.24475159 
749.30   1.24524494 
749.40   1.24573175 
749.50   1.24621202 
749.60   1.24668577 
749.70   1.24715299 
749.80   1.24761370 
749.90   1.24806791 
750.00   1.24851562 
750.10   1.24895683 
750.20   1.24939157 
750.30   1.24981982 
750.40   1.25024160 
750.50   1.25065692 
750.60   1.25106578 
750.70   1.25146819 
750.80   1.25186416 
750.90   1.25225368 
751.00   1.25263677 
751.10   1.25301344 
751.20   1.25338368 
751.30   1.25374751 
751.40   1.25410492 
751.50   1.25445593 
751.60   1.25480054 
751.70   1.25513876 
751.80   1.25547059 
751.90   1.25579603 
752.00   1.25611510 
752.10   1.25642779 
752.20   1.25673411 
752.30   1.25703407 
752.40   1.25732766 
752.50   1.25761490 
752.60   1.25789579 
752.70   1.25817033 
752.80   1.25843853 
752.90   1.25870039 
753.00   1.25895592 
753.10   1.25920511 
753.20   1.25944798 
753.30   1.25968452 
753.40   1.25991474 
753.50   1.26013865 
753.60   1.26035624 
753.70   1.26056752 
753.80   1.26077250 
753.90   1.26097117 
754.00   1.26116354 
754.10   1.26134961 
754.20   1.26152939 
754.30   1.26170288 
754.40   1.26187007 
754.50   1.26203098 
754.60   1.26218560 
754.70   1.26233394 
754.80   1.26247600 
754.90   1.26261178 
755.00   1.26274129 
755.10   1.26286452 
755.20   1.26298148 
755.30   1.26309217 
755.40   1.26319658 
755.50   1.26329473 
755.60   1.26338662 
755.70   1.26347224 
755.80   1.26355160 
755.90   1.26362469 
756.00   1.26369152 
756.10   1.26375209 
756.20   1.26380641 
756.30   1.26385446 
756.40   1.17080087 
756.50   1.17192067 
756.60   1.17303291 
756.70   1.17413762 
756.80   1.17523480 
756.90   1.17632449 
757.00   1.17740671 
757.10   1.17848147 
757.20   1.17954880 
757.30   1.18060872 
757.40   1.18166124 
757.50   1.18270639 
757.60   1.18374418 
757.70   1.18477464 
757.80   1.18579778 
757.90   1.18681363 
758.00   1.18782220 
758.10   1.18882351 
758.20   1.18981758 
758.30   1.19080442 
758.40   1.19178406 
758.50   1.19275651 
758.60   1.19372180 
758.70   1.19467993 
758.80   1.19563092 
758.90   1.19657480 
759.00   1.19751157 
759.10   1.19844126 
759.20   1.19936388 
759.30   1.20027945 
759.40   1.20118799 
759.50   1.20208950 
759.60   1.20298401 
759.70   1.20387154 
759.80   1.20475208 
759.90   1.20562567 
760.00   1.20649232 
760.10   1.20735204 
760.20   1.20820485 
760.30   1.20905076 
760.40   1.20988979 
760.50   1.21072194 
760.60   1.21154724 
760.70   1.21236570 
760.80   1.21317733 
760.90   1.21398215 
761.00   1.21478017 
761.10   1.21557140 
761.20   1.21635586 
761.30   1.21713355 
761.40   1.21790450 
761.50   1.21866872 
761.60   1.21942621 
761.70   1.22017699 
761.80   1.22092108 
761.90   1.22165848 
762.00   1.22238920 
762.10   1.22311327 
762.20   1.22383069 
762.30   1.22454147 
762.40   1.22524562 
762.50   1.22594316 
762.60   1.22663410 
762.70   1.22731844 
762.80   1.22799620 
762.90   1.22866740 
763.00   1.22933203 
763.10   1.22999012 
763.20   1.23064166 
763.30   1.23128668 
763.40   1.23192518 
763.50   1.23255718 
763.60   1.23318267 
763.70   1.23380168 
763.80   1.23441421 
763.90   1.23502028 
764.00   1.23561988 
764.10   1.23621304 
764.20   1.23679975 
764.30   1.23738004 
764.40   1.23795390 
764.50   1.23852135 
764.60   1.23908239 
764.70   1.23963704 
764.80   1.24018531 
764.90   1.24072719 
765.00   1.24126271 
765.10   1.24179186 
765.20   1.24231466 
765.30   1.24283112 
765.40   1.24334123 
765.50   1.24384502 
765.60   1.24434249 
765.70   1.24483364 
765.80   1.24531848 
765.90   1.24579702 
766.00   1.24626927 
766.10   1.24673524 
766.20   1.24719493 
766.30   1.24764834 
766.40   1.24809549 
766.50   1.24853639 
766.60   1.24897103 
766.70   1.24939943 
766.80   1.24982159 
766.90   1.25023752 
767.00   1.25064722 
767.10   1.25105070 
767.20   1.25144797 
767.30   1.25183903 
767.40   1.25222389 
767.50   1.25260256 
767.60   1.25297503 
767.70   1.25334132 
767.80   1.25370143 
767.90   1.25405536 
768.00   1.25440313 
768.10   1.25474473 
768.20   1.25508017 
768.30   1.25540946 
768.40   1.25573260 
768.50   1.25604960 
768.60   1.25636045 
768.70   1.25666517 
768.80   1.25696376 
768.90   1.25725623 
769.00   1.25754257 
769.10   1.25782279 
769.20   1.25809690 
769.30   1.25836490 
769.40   1.25862680 
769.50   1.25888259 
769.60   1.25913229 
769.70   1.25937589 
769.80   1.25961340 
769.90   1.25984482 
770.00   1.26007015 
770.10   1.26028941 
770.20   1.26050259 
770.30   1.26070969 
770.40   1.26091072 
770.50   1.26110568 
770.60   1.26129458 
770.70   1.26147741 
770.80   1.26165419 
770.90   1.26182490 
771.00   1.26198956 
771.10   1.26214816 
771.20   1.26230072 
771.30   1.26244722 
771.40   1.26258768 
771.50   1.26272209 
771.60   1.26285046 
771.70   1.26297279 
771.80   1.26308908 
771.90   1.26319934 
772.00   1.26330355 
772.10   1.26340174 
772.20   1.26349389 
772.30   1.26358000 
772.40   1.26366009 
772.50   1.26373415 
772.60   1.26380218 
772.70   1.26386418 
772.80   1.26392015 
772.90   1.26397010 
773.00   1.26401403 
773.10   1.26405193 
773.20   1.26408381 
773.30   1.26410966 
773.40   1.16963347 
773.50   1.17074027 
773.60   1.17183979 
773.70   1.17293203 
773.80   1.17401703 
773.90   1.17509479 
774.00   1.17616535 
774.10   1.17722871 
774.20   1.17828490 
774.30   1.17933394 
774.40   1.18037585 
774.50   1.18141064 
774.60   1.18243834 
774.70   1.18345896 
774.80   1.18447253 
774.90   1.18547905 
775.00   1.18647855 
775.10   1.18747104 
775.20   1.18845655 
775.30   1.18943509 
775.40   1.19040668 
775.50   1.19137133 
775.60   1.19232906 
775.70   1.19327989 
775.80   1.19422383 
775.90   1.19516091 
776.00   1.19609113 
776.10   1.19701451 
776.20   1.19793107 
776.30   1.19884083 
776.40   1.19974380 
776.50   1.20063999 
776.60   1.20152942 
776.70   1.20241211 
776.80   1.20328806 
776.90   1.20415730 
777.00   1.20501985 
777.10   1.20587570 
777.20   1.20672488 
777.30   1.20756741 
777.40   1.20840329 
777.50   1.20923254 
777.60   1.21005517 
777.70   1.21087120 
777.80   1.21168064 
777.90   1.21248350 
778.00   1.21327980 
778.10   1.21406955 
778.20   1.21485276 
778.30   1.21562945 
778.40   1.21639962 
778.50   1.21716330 
778.60   1.21792048 
778.70   1.21867119 
778.80   1.21941543 
778.90   1.22015322 
779.00   1.22088457 
779.10   1.22160950 
779.20   1.22232800 
779.30   1.22304010 
779.40   1.22374580 
779.50   1.22444512 
779.60   1.22513807 
779.70   1.22582465 
779.80   1.22650488 
779.90   1.22717877 
780.00   1.22784633 
780.10   1.22850757 
780.20   1.22916250 
780.30   1.22981113 
780.40   1.23045347 
780.50   1.23108953 
780.60   1.23171932 
780.70   1.23234285 
780.80   1.23296012 
780.90   1.23357116 
781.00   1.23417596 
781.10   1.23477454 
781.20   1.23536690 
781.30   1.23595306 
781.40   1.23653302 
781.50   1.23710679 
781.60   1.23767439 
781.70   1.23823581 
781.80   1.23879107 
781.90   1.23934017 
782.00   1.23988313 
782.10   1.24041996 
782.20   1.24095065 
782.30   1.24147522 
782.40   1.24199367 
782.50   1.24250602 
782.60   1.24301227 
782.70   1.24351243 
782.80   1.24400650 
782.90   1.24449449 
783.00   1.24497642 
783.10   1.24545228 
783.20   1.24592209 
783.30   1.24638585 
783.40   1.24684356 
783.50   1.24729524 
783.60   1.24774089 
783.70   1.24818051 
783.80   1.24861413 
783.90   1.24904173 
784.00   1.24946332 
784.10   1.24987892 
784.20   1.25028853 
784.30   1.25069215 
784.40   1.25108979 
784.50   1.25148145 
784.60   1.25186715 
784.70   1.25224688 
784.80   1.25262066 
784.90   1.25298848 
785.00   1.25335035 
785.10   1.25370629 
785.20   1.25405628 
785.30   1.25440034 
785.40   1.25473848 
785.50   1.25507069 
785.60   1.25539699 
785.70   1.25571737 
785.80   1.25603184 
785.90   1.25634041 
786.00   1.25664308 
786.10   1.25693985 
786.20   1.25723074 
786.30   1.25751573 
786.40   1.25779484 
786.50   1.25806807 
786.60   1.25833543 
786.70   1.25859691 
786.80   1.25885253 
786.90   1.25910228 
787.00   1.25934617 
787.10   1.25958420 
787.20   1.25981638 
787.30   1.26004270 
787.40   1.26026318 
787.50   1.26047781 
787.60   1.26068660 
787.70   1.26088955 
787.80   1.26108667 
787.90   1.26127795 
788.00   1.26146340 
788.10   1.26164302 
788.20   1.26181682 
788.30   1.26198479 
788.40   1.26214694 
788.50   1.26230328 
788.60   1.26245379 
788.70   1.26259849 
788.80   1.26273738 
788.90   1.26287046 
789.00   1.26299773 
789.10   1.26311919 
789.20   1.26323485 
789.30   1.26334470 
789.40   1.26344875 
789.50   1.26354700 
789.60   1.26363945 
789.70   1.26372610 
789.80   1.26380695 
789.90   1.26388201 
790.00   1.26395127 
790.10   1.26401474 
790.20   1.26407242 
790.30   1.26412430 
790.40   1.26417039 
790.50   1.26421069 
790.60   1.26424521 
790.70   1.26427393 
790.80   1.26429686 
790.90   1.26431400 
791.00   1.26432535 
791.10   1.26433091 
791.20   1.16872267 
791.30   1.16981423 
791.40   1.17089877 
791.50   1.17197631 
791.60   1.17304688 
791.70   1.17411048 
791.80   1.17516715 
791.90   1.17621690 
792.00   1.17725974 
792.10   1.17829570 
792.20   1.17932479 
792.30   1.18034704 
792.40   1.18136245 
792.50   1.18237106 
792.60   1.18337286 
792.70   1.18436789 
792.80   1.18535616 
792.90   1.18633768 
793.00   1.18731248 
793.10   1.18828056 
793.20   1.18924195 
793.30   1.19019666 
793.40   1.19114471 
793.50   1.19208611 
793.60   1.19302089 
793.70   1.19394904 
793.80   1.19487060 
793.90   1.19578557 
794.00   1.19669398 
794.10   1.19759583 
794.20   1.19849114 
794.30   1.19937992 
794.40   1.20026220 
794.50   1.20113798 
794.60   1.20200728 
794.70   1.20287010 
794.80   1.20372648 
794.90   1.20457642 
795.00   1.20541992 
795.10   1.20625702 
795.20   1.20708772 
795.30   1.20791203 
795.40   1.20872996 
795.50   1.20954154 
795.60   1.21034677 
795.70   1.21114566 
795.80   1.21193823 
795.90   1.21272449 
796.00   1.21350445 
796.10   1.21427813 
796.20   1.21504553 
796.30   1.21580667 
796.40   1.21656157 
796.50   1.21731022 
796.60   1.21805265 
796.70   1.21878886 
796.80   1.21951886 
796.90   1.22024268 
797.00   1.22096031 
797.10   1.22167177 
797.20   1.22237707 
797.30   1.22307622 
797.40   1.22376923 
797.50   1.22445611 
797.60   1.22513687 
797.70   1.22581152 
797.80   1.22648008 
797.90   1.22714255 
798.00   1.22779894 
798.10   1.22844926 
798.20   1.22909352 
798.30   1.22973173 
798.40   1.23036391 
798.50   1.23099005 
798.60   1.23161017 
798.70   1.23222427 
798.80   1.23283238 
798.90   1.23343449 
799.00   1.23403061 
799.10   1.23462076 
799.20   1.23520493 
799.30   1.23578315 
799.40   1.23635542 
799.50   1.23692174 
799.60   1.23748212 
799.70   1.23803658 
799.80   1.23858512 
799.90   1.23912775 
800.00   1.23966447 
800.10   1.24019530 
800.20   1.24072024 
800.30   1.24123930 
800.40   1.24175248 
800.50   1.24225980 
800.60   1.24276126 
800.70   1.24325687 
800.80   1.24374663 
800.90   1.24423056 
801.00   1.24470865 
801.10   1.24518092 
801.20   1.24564737 
801.30   1.24610800 
801.40   1.24656284 
801.50   1.24701187 
801.60   1.24745511 
801.70   1.24789257 
801.80   1.24832424 
801.90   1.24875014 
802.00   1.24917028 
802.10   1.24958465 
802.20   1.24999326 
802.30   1.25039612 
802.40   1.25079324 
802.50   1.25118461 
802.60   1.25157026 
802.70   1.25195017 
802.80   1.25232436 
802.90   1.25269283 
803.00   1.25305558 
803.10   1.25341263 
803.20   1.25376397 
803.30   1.25410961 
803.40   1.25444956 
803.50   1.25478382 
803.60   1.25511239 
803.70   1.25543528 
803.80   1.25575249 
803.90   1.25606404 
804.00   1.25636991 
804.10   1.25667012 
804.20   1.25696467 
804.30   1.25725356 
804.40   1.25753680 
804.50   1.25781440 
804.60   1.25808635 
804.70   1.25835266 
804.80   1.25861333 
804.90   1.25886836 
805.00   1.25911777 
805.10   1.25936155 
805.20   1.25959971 
805.30   1.25983224 
805.40   1.26005916 
805.50   1.26028046 
805.60   1.26049615 
805.70   1.26070624 
805.80   1.26091072 
805.90   1.26110959 
806.00   1.26130286 
806.10   1.26149054 
806.20   1.26167262 
806.30   1.26184911 
806.40   1.26202001 
806.50   1.26218532 
806.60   1.26234504 
806.70   1.26249918 
806.80   1.26264774 
806.90   1.26279072 
807.00   1.26292812 
807.10   1.26305994 
807.20   1.26318619 
807.30   1.26330686 
807.40   1.26342197 
807.50   1.26353150 
807.60   1.26363547 
807.70   1.26373387 
807.80   1.26382670 
807.90   1.26391397 
808.00   1.26399568 
808.10   1.26407183 
808.20   1.26414241 
808.30   1.26420743 
808.40   1.26426690 
808.50   1.26432080 
808.60   1.26436915 
808.70   1.26441194 
808.80   1.26444917 
808.90   1.26448085 
809.00   1.26450697 
809.10   1.26452754 
809.20   1.26454255 
809.30   1.26455201 
809.40   1.26455591 
809.50   1.26455426 
809.60   1.26454705 
809.70   1.26453429 
809.80   1.26451597 
809.90   1.16808908 
810.00   1.16916297 
810.10   1.17023012 
810.20   1.17129056 
810.30   1.17234430 
810.40   1.17339136 
810.50   1.17443175 
810.60   1.17546551 
810.70   1.17649263 
810.80   1.17751315 
810.90   1.17852707 
811.00   1.17953442 
811.10   1.18053521 
811.20   1.18152946 
811.30   1.18251719 
811.40   1.18349841 
811.50   1.18447313 
811.60   1.18544138 
811.70   1.18640316 
811.80   1.18735850 
811.90   1.18830742 
812.00   1.18924991 
812.10   1.19018601 
812.20   1.19111573 
812.30   1.19203907 
812.40   1.19295607 
812.50   1.19386672 
812.60   1.19477105 
812.70   1.19566906 
812.80   1.19656079 
812.90   1.19744622 
813.00   1.19832540 
813.10   1.19919831 
813.20   1.20006499 
813.30   1.20092543 
813.40   1.20177967 
813.50   1.20262770 
813.60   1.20346955 
813.70   1.20430522 
813.80   1.20513473 
813.90   1.20595809 
814.00   1.20677531 
814.10   1.20758641 
814.20   1.20839140 
814.30   1.20919028 
814.40   1.20998308 
814.50   1.21076981 
814.60   1.21155047 
814.70   1.21232508 
814.80   1.21309365 
814.90   1.21385619 
815.00   1.21461271 
815.10   1.21536323 
815.20   1.21610775 
815.30   1.21684629 
815.40   1.21757885 
815.50   1.21830545 
815.60   1.21902610 
815.70   1.21974081 
815.80   1.22044959 
815.90   1.22115244 
816.00   1.22184939 
816.10   1.22254044 
816.20   1.22322559 
816.30   1.22390487 
816.40   1.22457827 
816.50   1.22524582 
816.60   1.22590751 
816.70   1.22656336 
816.80   1.22721338 
816.90   1.22785758 
817.00   1.22849596 
817.10   1.22912853 
817.20   1.22975532 
817.30   1.23037631 
817.40   1.23099152 
817.50   1.23160097 
817.60   1.23220465 
817.70   1.23280259 
817.80   1.23339477 
817.90   1.23398122 
818.00   1.23456195 
818.10   1.23513695 
818.20   1.23570624 
818.30   1.23626983 
818.40   1.23682772 
818.50   1.23737993 
818.60   1.23792645 
818.70   1.23846730 
818.80   1.23900248 
818.90   1.23953201 
819.00   1.24005588 
819.10   1.24057411 
819.20   1.24108670 
819.30   1.24159367 
819.40   1.24209500 
819.50   1.24259073 
819.60   1.24308084 
819.70   1.24356535 
819.80   1.24404426 
819.90   1.24451759 
820.00   1.24498533 
820.10   1.24544749 
820.20   1.24590408 
820.30   1.24635511 
820.40   1.24680058 
820.50   1.24724049 
820.60   1.24767486 
820.70   1.24810369 
820.80   1.24852698 
820.90   1.24894474 
821.00   1.24935697 
821.10   1.24976369 
821.20   1.25016489 
821.30   1.25056059 
821.40   1.25095078 
821.50   1.25133548 
821.60   1.25171468 
821.70   1.25208839 
821.80   1.25245662 
821.90   1.25281937 
822.00   1.25317665 
822.10   1.25352846 
822.20   1.25387481 
822.30   1.25421570 
822.40   1.25455113 
822.50   1.25488111 
822.60   1.25520564 
822.70   1.25552474 
822.80   1.25583839 
822.90   1.25614661 
823.00   1.25644940 
823.10   1.25674676 
823.20   1.25703871 
823.30   1.25732523 
823.40   1.25760634 
823.50   1.25788204 
823.60   1.25815233 
823.70   1.25841721 
823.80   1.25867670 
823.90   1.25893079 
824.00   1.25917948 
824.10   1.25942278 
824.20   1.25966070 
824.30   1.25989323 
824.40   1.26012038 
824.50   1.26034215 
824.60   1.26055855 
824.70   1.26076957 
824.80   1.26097522 
824.90   1.26117550 
825.00   1.26137042 
825.10   1.26155997 
825.20   1.26174417 
825.30   1.26192301 
825.40   1.26209649 
825.50   1.26226461 
825.60   1.26242739 
825.70   1.26258482 
825.80   1.26273690 
825.90   1.26288363 
826.00   1.26302502 
826.10   1.26316107 
826.20   1.26329178 
826.30   1.26341715 
826.40   1.26353718 
826.50   1.26365188 
826.60   1.26376124 
826.70   1.26386527 
826.80   1.26396398 
826.90   1.26405735 
827.00   1.26414539 
827.10   1.26422810 
827.20   1.26430549 
827.30   1.26437755 
827.40   1.26444429 
827.50   1.26450571 
827.60   1.26456180 
827.70   1.26461257 
827.80   1.26465801 
827.90   1.26469814 
828.00   1.26473295 
828.10   1.26476243 
828.20   1.26478660 
828.30   1.26480544 
828.40   1.26481897 
828.50   1.26482718 
828.60   1.26483007 
828.70   1.26482764 
828.80   1.26481989 
828.90   1.26480682 
829.00   1.26478843 
829.10   1.26476473 
829.20   1.26473570 
829.30   1.26470136 
829.40   1.16667903 
829.50   1.16773937 
829.60   1.16879325 
829.70   1.16984068 
829.80   1.17088168 
829.90   1.17191627 
830.00   1.17294447 
830.10   1.17396630 
830.20   1.17498176 
830.30   1.17599087 
830.40   1.17699366 
830.50   1.17799014 
830.60   1.17898032 
830.70   1.17996423 
830.80   1.18094187 
830.90   1.18191326 
831.00   1.18287841 
831.10   1.18383735 
831.20   1.18479009 
831.30   1.18573664 
831.40   1.18667701 
831.50   1.18761123 
831.60   1.18853930 
831.70   1.18946125 
831.80   1.19037708 
831.90   1.19128681 
832.00   1.19219045 
832.10   1.19308801 
832.20   1.19397952 
832.30   1.19486499 
832.40   1.19574441 
832.50   1.19661782 
832.60   1.19748523 
832.70   1.19834664 
832.80   1.19920207 
832.90   1.20005153 
833.00   1.20089504 
833.10   1.20173261 
833.20   1.20256425 
833.30   1.20338997 
833.40   1.20420978 
833.50   1.20502370 
833.60   1.20583174 
833.70   1.20663391 
833.80   1.20743022 
833.90   1.20822069 
834.00   1.20900532 
834.10   1.20978413 
834.20   1.21055713 
834.30   1.21132432 
834.40   1.21208573 
834.50   1.21284135 
834.60   1.21359121 
834.70   1.21433531 
834.80   1.21507366 
834.90   1.21580628 
835.00   1.21653317 
835.10   1.21725434 
835.20   1.21796981 
835.30   1.21867958 
835.40   1.21938367 
835.50   1.22008208 
835.60   1.22077483 
835.70   1.22146192 
835.80   1.22214336 
835.90   1.22281916 
836.00   1.22348934 
836.10   1.22415389 
836.20   1.22481284 
836.30   1.22546618 
836.40   1.22611394 
836.50   1.22675611 
836.60   1.22739271 
836.70   1.22802374 
836.80   1.22864921 
836.90   1.22926914 
837.00   1.22988352 
837.10   1.23049238 
837.20   1.23109571 
837.30   1.23169352 
837.40   1.23228583 
837.50   1.23287264 
837.60   1.23345395 
837.70   1.23402978 
837.80   1.23460014 
837.90   1.23516503 
838.00   1.23572445 
838.10   1.23627842 
838.20   1.23682695 
838.30   1.23737004 
838.40   1.23790769 
838.50   1.23843992 
838.60   1.23896673 
838.70   1.23948813 
838.80   1.24000413 
838.90   1.24051473 
839.00   1.24101994 
839.10   1.24151976 
839.20   1.24201421 
839.30   1.24250328 
839.40   1.24298699 
839.50   1.24346535 
839.60   1.24393834 
839.70   1.24440600 
839.80   1.24486831 
839.90   1.24532529 
840.00   1.24577694 
840.10   1.24622326 
840.20   1.24666427 
840.30   1.24709997 
840.40   1.24753036 
840.50   1.24795545 
840.60   1.24837525 
840.70   1.24878976 
840.80   1.24919898 
840.90   1.24960292 
841.00   1.25000159 
841.10   1.25039499 
841.20   1.25078313 
841.30   1.25116601 
841.40   1.25154363 
841.50   1.25191600 
841.60   1.25228313 
841.70   1.25264502 
841.80   1.25300167 
841.90   1.25335309 
842.00   1.25369929 
842.10   1.25404026 
842.20   1.25437601 
842.30   1.25470655 
842.40   1.25503188 
842.50   1.25535201 
842.60   1.25566693 
842.70   1.25597665 
842.80   1.25628118 
842.90   1.25658052 
843.00   1.25687468 
843.10   1.25716364 
843.20   1.25744744 
843.30   1.25772605 
843.40   1.25799949 
843.50   1.25826776 
843.60   1.25853087 
843.70   1.25878882 
843.80   1.25904160 
843.90   1.25928923 
844.00   1.25953170 
844.10   1.25976903 
844.20   1.26000121 
844.30   1.26022824 
844.40   1.26045013 
844.50   1.26066688 
844.60   1.26087850 
844.70   1.26108498 
844.80   1.26128633 
844.90   1.26148256 
845.00   1.26167365 
845.10   1.26185962 
845.20   1.26204047 
845.30   1.26221620 
845.40   1.26238681 
845.50   1.26255231 
845.60   1.26271270 
845.70   1.26286797 
845.80   1.26301813 
845.90   1.26316319 
846.00   1.26330313 
846.10   1.26343798 
846.20   1.26356772 
846.30   1.26369236 
846.40   1.26381190 
846.50   1.26392635 
846.60   1.26403569 
846.70   1.26413994 
846.80   1.26423910 
846.90   1.26433316 
847.00   1.26442214 
847.10   1.26450602 
847.20   1.26458481 
847.30   1.26465851 
847.40   1.26472713 
847.50   1.26479065 
847.60   1.26484909 
847.70   1.26490245 
847.80   1.26495072 
847.90   1.26499391 
848.00   1.26503201 
848.10   1.26506503 
848.20   1.26509296 
848.30   1.26511582 
848.40   1.26513359 
848.50   1.26514628 
848.60   1.26515388 
848.70   1.26515641 
848.80   1.26515385 
848.90   1.26514621 
849.00   1.26513349 
849.10   1.26511569 
849.20   1.26509280 
849.30   1.26506483 
849.40   1.26503178 
849.50   1.26499365 
849.60   1.26495043 
849.70   1.26490213 
849.80   1.26484874 
849.90   1.16664050 
850.00   1.16767831 
850.10   1.16870994 
850.20   1.16973543 
850.30   1.17075478 
850.40   1.17176802 
850.50   1.17277515 
850.60   1.17377619 
850.70   1.17477117 
850.80   1.17576008 
850.90   1.17674296 
851.00   1.17771981 
851.10   1.17869064 
851.20   1.17965549 
851.30   1.18061435 
851.40   1.18156724 
851.50   1.18251418 
851.60   1.18345519 
851.70   1.18439027 
851.80   1.18531944 
851.90   1.18624271 
852.00   1.18716010 
852.10   1.18807163 
852.20   1.18897729 
852.30   1.18987712 
852.40   1.19077112 
852.50   1.19165930 
852.60   1.19254168 
852.70   1.19341827 
852.80   1.19428909 
852.90   1.19515414 
853.00   1.19601344 
853.10   1.19686699 
853.20   1.19771483 
853.30   1.19855694 
853.40   1.19939336 
853.50   1.20022408 
853.60   1.20104913 
853.70   1.20186850 
853.80   1.20268223 
853.90   1.20349030 
854.00   1.20429275 
854.10   1.20508957 
854.20   1.20588078 
854.30   1.20666639 
854.40   1.20744642 
854.50   1.20822086 
854.60   1.20898974 
854.70   1.20975307 
854.80   1.21051084 
854.90   1.21126309 
855.00   1.21200980 
855.10   1.21275100 
855.20   1.21348670 
855.30   1.21421690 
855.40   1.21494162 
855.50   1.21566086 
855.60   1.21637464 
855.70   1.21708296 
855.80   1.21778583 
855.90   1.21848327 
856.00   1.21917528 
856.10   1.21986187 
856.20   1.22054305 
856.30   1.22121883 
856.40   1.22188922 
856.50   1.22255423 
856.60   1.22321387 
856.70   1.22386814 
856.80   1.22451705 
856.90   1.22516062 
857.00   1.22579884 
857.10   1.22643174 
857.20   1.22705931 
857.30   1.22768157 
857.40   1.22829852 
857.50   1.22891018 
857.60   1.22951654 
857.70   1.23011762 
857.80   1.23071343 
857.90   1.23130397 
858.00   1.23188924 
858.10   1.23246927 
858.20   1.23304405 
858.30   1.23361360 
858.40   1.23417791 
858.50   1.23473700 
858.60   1.23529088 
858.70   1.23583954 
858.80   1.23638300 
858.90   1.23692127 
859.00   1.23745435 
859.10   1.23798225 
859.20   1.23850497 
859.30   1.23902253 
859.40   1.23953492 
859.50   1.24004216 
859.60   1.24054424 
859.70   1.24104119 
859.80   1.24153300 
859.90   1.24201967 
860.00   1.24250122 
860.10   1.24297766 
860.20   1.24344898 
860.30   1.24391519 
860.40   1.24437630 
860.50   1.24483232 
860.60   1.24528324 
860.70   1.24572908 
860.80   1.24616985 
860.90   1.24660553 
861.00   1.24703615 
861.10   1.24746171 
861.20   1.24788221 
861.30   1.24829765 
861.40   1.24870805 
861.50   1.24911341 
861.60   1.24951372 
861.70   1.24990901 
861.80   1.25029926 
861.90   1.25068449 
862.00   1.25106471 
862.10   1.25143990 
862.20   1.25181009 
862.30   1.25217527 
862.40   1.25253546 
862.50   1.25289064 
862.60   1.25324083 
862.70   1.25358604 
862.80   1.25392626 
862.90   1.25426150 
863.00   1.25459176 
863.10   1.25491705 
863.20   1.25523737 
863.30   1.25555273 
863.40   1.25586313 
863.50   1.25616857 
863.60   1.25646906 
863.70   1.25676459 
863.80   1.25705518 
863.90   1.25734083 
864.00   1.25762154 
864.10   1.25789731 
864.20   1.25816814 
864.30   1.25843405 
864.40   1.25869503 
864.50   1.25895109 
864.60   1.25920223 
864.70   1.25944844 
864.80   1.25968975 
864.90   1.25992614 
865.00   1.26015762 
865.10   1.26038419 
865.20   1.26060587 
865.30   1.26082264 
865.40   1.26103451 
865.50   1.26124148 
865.60   1.26144356 
865.70   1.26164075 
865.80   1.26183305 
865.90   1.26202046 
866.00   1.26220299 
866.10   1.26238063 
866.20   1.26255339 
866.30   1.26272128 
866.40   1.26288429 
866.50   1.26304242 
866.60   1.26319568 
866.70   1.26334407 
866.80   1.26348759 
866.90   1.26362624 
867.00   1.26376002 
867.10   1.26388894 
867.20   1.26401300 
867.30   1.26413219 
867.40   1.26424652 
867.50   1.26435600 
867.60   1.26446062 
867.70   1.26456038 
867.80   1.26465528 
867.90   1.26474533 
868.00   1.26483053 
868.10   1.26491087 
868.20   1.26498636 
868.30   1.26505700 
868.40   1.26512279 
868.50   1.26518374 
868.60   1.26523983 
868.70   1.26529108 
868.80   1.26533748 
868.90   1.26537903 
869.00   1.26541573 
869.10   1.26544759 
869.20   1.26547461 
869.30   1.26549678 
869.40   1.26551410 
869.50   1.26552659 
869.60   1.26553422 
869.70   1.26553701 
869.80   1.26553496 
869.90   1.26552806 
870.00   1.26551632 
870.10   1.26549974 
870.20   1.26547830 
870.30   1.26545203 
870.40   1.26542091 
870.50   1.26538494 
870.60   1.26534413 
870.70   1.26529847 
870.80   1.26524796 
870.90   1.26519260 
871.00   1.26513240 
871.10   1.26506735 
871.20   1.26499745 
871.30   1.26492270 
871.40   1.16489003 
871.50   1.16591441 
871.60   1.16693289 
871.70   1.16794550 
871.80   1.16895224 
871.90   1.16995314 
872.00   1.17094820 
872.10   1.17193744 
872.20   1.17292089 
872.30   1.17389854 
872.40   1.17487041 
872.50   1.17583653 
872.60   1.17679690 
872.70   1.17775154 
872.80   1.17870046 
872.90   1.17964368 
873.00   1.18058121 
873.10   1.18151306 
873.20   1.18243925 
873.30   1.18335978 
873.40   1.18427468 
873.50   1.18518396 
873.60   1.18608762 
873.70   1.18698569 
873.80   1.18787817 
873.90   1.18876508 
874.00   1.18964642 
874.10   1.19052222 
874.20   1.19139249 
874.30   1.19225722 
874.40   1.19311645 
874.50   1.19397018 
874.60   1.19481842 
874.70   1.19566118 
874.80   1.19649848 
874.90   1.19733033 
875.00   1.19815673 
875.10   1.19897770 
875.20   1.19979325 
875.30   1.20060340 
875.40   1.20140814 
875.50   1.20220750 
875.60   1.20300149 
875.70   1.20379011 
875.80   1.20457337 
875.90   1.20535129 
876.00   1.20612387 
876.10   1.20689113 
876.20   1.20765308 
876.30   1.20840973 
876.40   1.20916108 
876.50   1.20990714 
876.60   1.21064793 
876.70   1.21138346 
876.80   1.21211374 
876.90   1.21283876 
877.00   1.21355855 
877.10   1.21427312 
877.20   1.21498247 
877.30   1.21568661 
877.40   1.21638555 
877.50   1.21707930 
877.60   1.21776787 
877.70   1.21845126 
877.80   1.21912950 
877.90   1.21980257 
878.00   1.22047050 
878.10   1.22113329 
878.20   1.22179096 
878.30   1.22244350 
878.40   1.22309092 
878.50   1.22373325 
878.60   1.22437047 
878.70   1.22500261 
878.80   1.22562966 
878.90   1.22625164 
879.00   1.22686855 
879.10   1.22748041 
879.20   1.22808721 
879.30   1.22868897 
879.40   1.22928570 
879.50   1.22987740 
879.60   1.23046407 
879.70   1.23104574 
879.80   1.23162239 
879.90   1.23219404 
880.00   1.23276071 
880.10   1.23332238 
880.20   1.23387908 
880.30   1.23443080 
880.40   1.23497756 
880.50   1.23551936 
880.60   1.23605620 
880.70   1.23658810 
880.80   1.23711506 
880.90   1.23763709 
881.00   1.23815419 
881.10   1.23866636 
881.20   1.23917362 
881.30   1.23967598 
881.40   1.24017343 
881.50   1.24066598 
881.60   1.24115364 
881.70   1.24163642 
881.80   1.24211431 
881.90   1.24258733 
882.00   1.24305548 
882.10   1.24351877 
882.20   1.24397720 
882.30   1.24443078 
882.40   1.24487951 
882.50   1.24532340 
882.60   1.24576245 
882.70   1.24619668 
882.80   1.24662607 
882.90   1.24705064 
883.00   1.24747040 
883.10   1.24788534 
883.20   1.24829548 
883.30   1.24870081 
883.40   1.24910135 
883.50   1.24949710 
883.60   1.24988805 
883.70   1.25027422 
883.80   1.25065562 
883.90   1.25103223 
884.00   1.25140408 
884.10   1.25177116 
884.20   1.25213348 
884.30   1.25249104 
884.40   1.25284384 
884.50   1.25319190 
884.60   1.25353520 
884.70   1.25387377 
884.80   1.25420760 
884.90   1.25453669 
885.00   1.25486105 
885.10   1.25518069 
885.20   1.25549560 
885.30   1.25580579 
885.40   1.25611126 
885.50   1.25641202 
885.60   1.25670808 
885.70   1.25699942 
885.80   1.25728606 
885.90   1.25756800 
886.00   1.25784525 
886.10   1.25811780 
886.20   1.25838566 
886.30   1.25864883 
886.40   1.25890732 
886.50   1.25916113 
886.60   1.25941025 
886.70   1.25965470 
886.80   1.25989448 
886.90   1.26012959 
887.00   1.26036002 
887.10   1.26058580 
887.20   1.26080691 
887.30   1.26102335 
887.40   1.26123514 
887.50   1.26144228 
887.60   1.26164476 
887.70   1.26184259 
887.80   1.26203577 
887.90   1.26222430 
888.00   1.26240819 
888.10   1.26258743 
888.20   1.26276203 
888.30   1.26293200 
888.40   1.26309733 
888.50   1.26325802 
888.60   1.26341407 
888.70   1.26356550 
888.80   1.26371230 
888.90   1.26385446 
889.00   1.26399200 
889.10   1.26412492 
889.20   1.26425321 
889.30   1.26437687 
889.40   1.26449592 
889.50   1.26461035 
889.60   1.26472015 
889.70   1.26482534 
889.80   1.26492592 
889.90   1.26502187 
890.00   1.26511322 
890.10   1.26519995 
890.20   1.26528207 
890.30   1.26535957 
890.40   1.26543247 
890.50   1.26550075 
890.60   1.26556443 
890.70   1.26562350 
890.80   1.26567796 
890.90   1.26572781 
891.00   1.26577306 
891.10   1.26581370 
891.20   1.26584974 
891.30   1.26588117 
891.40   1.26590799 
891.50   1.26593021 
891.60   1.26594783 
891.70   1.26596084 
891.80   1.26596925 
891.90   1.26597305 
892.00   1.26597225 
892.10   1.26596685 
892.20   1.26595684 
892.30   1.26594223 
892.40   1.26592301 
892.50   1.26589919 
892.60   1.26587076 
892.70   1.26583773 
892.80   1.26580010 
892.90   1.26575786 
893.00   1.26571101 
893.10   1.26565955 
893.20   1.26560349 
893.30   1.26554282 
893.40   1.26547754 
893.50   1.26540765 
893.60   1.26533316 
893.70   1.26525405 
893.80   1.26517033 
893.90   1.26508199 
894.00   1.26498905 
894.10   1.16455399 
894.20   1.16555588 
894.30   1.16655219 
894.40   1.16754290 
894.50   1.16852805 
894.60   1.16950765 
894.70   1.17048170 
894.80   1.17145023 
894.90   1.17241324 
895.00   1.17337076 
895.10   1.17432279 
895.20   1.17526934 
895.30   1.17621044 
895.40   1.17714609 
895.50   1.17807631 
895.60   1.17900110 
895.70   1.17992049 
895.80   1.18083448 
895.90   1.18174309 
896.00   1.18264633 
896.10   1.18354422 
896.20   1.18443675 
896.30   1.18532395 
896.40   1.18620583 
896.50   1.18708241 
896.60   1.18795368 
896.70   1.18881966 
896.80   1.18968038 
896.90   1.19053582 
897.00   1.19138602 
897.10   1.19223097 
897.20   1.19307070 
897.30   1.19390520 
897.40   1.19473450 
897.50   1.19555860 
897.60   1.19637752 
897.70   1.19719126 
897.80   1.19799983 
897.90   1.19880325 
898.00   1.19960153 
898.10   1.20039467 
898.20   1.20118268 
898.30   1.20196559 
898.40   1.20274339 
898.50   1.20351609 
898.60   1.20428372 
898.70   1.20504626 
898.80   1.20580375 
898.90   1.20655617 
899.00   1.20730356 
899.10   1.20804590 
899.20   1.20878322 
899.30   1.20951552 
899.40   1.21024281 
899.50   1.21096511 
899.60   1.21168241 
899.70   1.21239473 
899.80   1.21310207 
899.90   1.21380445 
900.00   1.21450188 
900.10   1.21519436 
900.20   1.21588190 
900.30   1.21656451 
900.40   1.21724219 
900.50   1.21791497 
900.60   1.21858283 
900.70   1.21924580 
900.80   1.21990388 
900.90   1.22055708 
901.00   1.22120540 
901.10   1.22184886 
901.20   1.22248746 
901.30   1.22312120 
901.40   1.22375011 
901.50   1.22437418 
901.60   1.22499342 
901.70   1.22560783 
901.80   1.22621744 
901.90   1.22682223 
902.00   1.22742223 
902.10   1.22801744 
902.20   1.22860785 
902.30   1.22919349 
902.40   1.22977436 
902.50   1.23035046 
902.60   1.23092181 
902.70   1.23148840 
902.80   1.23205025 
902.90   1.23260735 
903.00   1.23315973 
903.10   1.23370738 
903.20   1.23425031 
903.30   1.23478852 
903.40   1.23532203 
903.50   1.23585083 
903.60   1.23637495 
903.70   1.23689437 
903.80   1.23740910 
903.90   1.23791917 
904.00   1.23842455 
904.10   1.23892528 
904.20   1.23942134 
904.30   1.23991275 
904.40   1.24039950 
904.50   1.24088162 
904.60   1.24135909 
904.70   1.24183193 
904.80   1.24230015 
904.90   1.24276374 
905.00   1.24322271 
905.10   1.24367708 
905.20   1.24412683 
905.30   1.24457198 
905.40   1.24501254 
905.50   1.24544850 
905.60   1.24587988 
905.70   1.24630667 
905.80   1.24672888 
905.90   1.24714652 
906.00   1.24755959 
906.10   1.24796810 
906.20   1.24837205 
906.30   1.24877144 
906.40   1.24916628 
906.50   1.24955657 
906.60   1.24994233 
906.70   1.25032354 
906.80   1.25070022 
906.90   1.25107237 
907.00   1.25143999 
907.10   1.25180309 
907.20   1.25216167 
907.30   1.25251574 
907.40   1.25286530 
907.50   1.25321035 
907.60   1.25355090 
907.70   1.25388695 
907.80   1.25421850 
907.90   1.25454556 
908.00   1.25486813 
908.10   1.25518622 
908.20   1.25549983 
908.30   1.25580895 
908.40   1.25611361 
908.50   1.25641379 
908.60   1.25670950 
908.70   1.25700075 
908.80   1.25728753 
908.90   1.25756986 
909.00   1.25784772 
909.10   1.25812114 
909.20   1.25839011 
909.30   1.25865462 
909.40   1.25891470 
909.50   1.25917033 
909.60   1.25942152 
909.70   1.25966827 
909.80   1.25991059 
909.90   1.26014848 
910.00   1.26038194 
910.10   1.26061098 
910.20   1.26083559 
910.30   1.26105578 
910.40   1.26127155 
910.50   1.26148290 
910.60   1.26168983 
910.70   1.26189236 
910.80   1.26209047 
910.90   1.26228418 
911.00   1.26247348 
911.10   1.26265837 
911.20   1.26283886 
911.30   1.26301495 
911.40   1.26318664 
911.50   1.26335394 
911.60   1.26351684 
911.70   1.26367534 
911.80   1.26382946 
911.90   1.26397918 
912.00   1.26412451 
912.10   1.26426546 
912.20   1.26440202 
912.30   1.26453420 
912.40   1.26466199 
912.50   1.26478540 
912.60   1.26490444 
912.70   1.26501909 
912.80   1.26512936 
912.90   1.26523526 
913.00   1.26533678 
913.10   1.26543393 
913.20   1.26552670 
913.30   1.26561511 
913.40   1.26569913 
913.50   1.26577879 
913.60   1.26585408 
913.70   1.26592500 
913.80   1.26599155 
913.90   1.26605373 
914.00   1.26611155 
914.10   1.26616499 
914.20   1.26621408 
914.30   1.26625879 
914.40   1.26629914 
914.50   1.26633513 
914.60   1.26636675 
914.70   1.26639401 
914.80   1.26641691 
914.90   1.26643544 
915.00   1.26644960 
915.10   1.26645941 
915.20   1.26646485 
915.30   1.26646593 
915.40   1.26646264 
915.50   1.26645500 
915.60   1.26644299 
915.70   1.26642661 
915.80   1.26640587 
915.90   1.26638077 
916.00   1.26635131 
916.10   1.26631748 
916.20   1.26627928 
916.30   1.26623673 
916.40   1.26618980 
916.50   1.26613851 
916.60   1.26608286 
916.70   1.26602283 
916.80   1.26595844 
916.90   1.26588968 
917.00   1.26581655 
917.10   1.26573906 
917.20   1.26565719 
917.30   1.26557095 
917.40   1.26548034 
917.50   1.26538535 
917.60   1.26528599 
917.70   1.26518226 
917.80   1.26507415 
917.90   1.16264857 
918.00   1.16363561 
918.10   1.16461733 
918.20   1.16559374 
918.30   1.16656486 
918.40   1.16753070 
918.50   1.16849127 
918.60   1.16944659 
918.70   1.17039667 
918.80   1.17134152 
918.90   1.17228115 
919.00   1.17321559 
919.10   1.17414483 
919.20   1.17506889 
919.30   1.17598778 
919.40   1.17690152 
919.50   1.17781012 
919.60   1.17871359 
919.70   1.17961194 
919.80   1.18050519 
919.90   1.18139334 
920.00   1.18227640 
920.10   1.18315439 
920.20   1.18402733 
920.30   1.18489521 
920.40   1.18575805 
920.50   1.18661587 
920.60   1.18746866 
920.70   1.18831646 
920.80   1.18915925 
920.90   1.18999707 
921.00   1.19082990 
921.10   1.19165778 
921.20   1.19248070 
921.30   1.19329868 
921.40   1.19411172 
921.50   1.19491984 
921.60   1.19572305 
921.70   1.19652136 
921.80   1.19731477 
921.90   1.19810330 
922.00   1.19888695 
922.10   1.19966574 
922.20   1.20043968 
922.30   1.20120877 
922.40   1.20197302 
922.50   1.20273245 
922.60   1.20348706 
922.70   1.20423686 
922.80   1.20498186 
922.90   1.20572207 
923.00   1.20645750 
923.10   1.20718815 
923.20   1.20791404 
923.30   1.20863517 
923.40   1.20935156 
923.50   1.21006320 
923.60   1.21077012 
923.70   1.21147231 
923.80   1.21216979 
923.90   1.21286256 
924.00   1.21355064 
924.10   1.21423402 
924.20   1.21491272 
924.30   1.21558675 
924.40   1.21625611 
924.50   1.21692081 
924.60   1.21758086 
924.70   1.21823627 
924.80   1.21888704 
924.90   1.21953318 
925.00   1.22017470 
925.10   1.22081161 
925.20   1.22144391 
925.30   1.22207160 
925.40   1.22269471 
925.50   1.22331323 
925.60   1.22392717 
925.70   1.22453654 
925.80   1.22514135 
925.90   1.22574159 
926.00   1.22633729 
926.10   1.22692844 
926.20   1.22751505 
926.30   1.22809713 
926.40   1.22867468 
926.50   1.22924772 
926.60   1.22981624 
926.70   1.23038026 
926.80   1.23093977 
926.90   1.23149479 
927.00   1.23204533 
927.10   1.23259138 
927.20   1.23313295 
927.30   1.23367006 
927.40   1.23420270 
927.50   1.23473088 
927.60   1.23525461 
927.70   1.23577389 
927.80   1.23628873 
927.90   1.23679913 
928.00   1.23730510 
928.10   1.23780665 
928.20   1.23830378 
928.30   1.23879649 
928.40   1.23928480 
928.50   1.23976870 
928.60   1.24024820 
928.70   1.24072331 
928.80   1.24119403 
928.90   1.24166036 
929.00   1.24212232 
929.10   1.24257990 
929.20   1.24303311 
929.30   1.24348196 
929.40   1.24392645 
929.50   1.24436659 
929.60   1.24480237 
929.70   1.24523381 
929.80   1.24566091 
929.90   1.24608367 
930.00   1.24650210 
930.10   1.24691620 
930.20   1.24732597 
930.30   1.24773143 
930.40   1.24813257 
930.50   1.24852940 
930.60   1.24892193 
930.70   1.24931015 
930.80   1.24969407 
930.90   1.25007370 
931.00   1.25044904 
931.10   1.25082009 
931.20   1.25118685 
931.30   1.25154934 
931.40   1.25190755 
931.50   1.25226149 
931.60   1.25261116 
931.70   1.25295657 
931.80   1.25329771 
931.90   1.25363460 
932.00   1.25396723 
932.10   1.25429561 
932.20   1.25461974 
932.30   1.25493963 
932.40   1.25525528 
932.50   1.25556668 
932.60   1.25587386 
932.70   1.25617680 
932.80   1.25647551 
932.90   1.25677000 
933.00   1.25706027 
933.10   1.25734631 
933.20   1.25762814 
933.30   1.25790575 
933.40   1.25817916 
933.50   1.25844835 
933.60   1.25871334 
933.70   1.25897412 
933.80   1.25923071 
933.90   1.25948310 
934.00   1.25973129 
934.10   1.25997529 
934.20   1.26021509 
934.30   1.26045071 
934.40   1.26068215 
934.50   1.26090939 
934.60   1.26113246 
934.70   1.26135135 
934.80   1.26156607 
934.90   1.26177660 
935.00   1.26198297 
935.10   1.26218516 
935.20   1.26238319 
935.30   1.26257705 
935.40   1.26276674 
935.50   1.26295227 
935.60   1.26313364 
935.70   1.26331086 
935.80   1.26348391 
935.90   1.26365281 
936.00   1.26381755 
936.10   1.26397814 
936.20   1.26413458 
936.30   1.26428687 
936.40   1.26443502 
936.50   1.26457901 
936.60   1.26471887 
936.70   1.26485457 
936.80   1.26498614 
936.90   1.26511357 
937.00   1.26523685 
937.10   1.26535600 
937.20   1.26547101 
937.30   1.26558188 
937.40   1.26568862 
937.50   1.26579122 
937.60   1.26588969 
937.70   1.26598403 
937.80   1.26607424 
937.90   1.26616032 
938.00   1.26624226 
938.10   1.26632008 
938.20   1.26639377 
938.30   1.26646334 
938.40   1.26652877 
938.50   1.26659009 
938.60   1.26664727 
938.70   1.26670033 
938.80   1.26674927 
938.90   1.26679408 
939.00   1.26683477 
939.10   1.26687134 
939.20   1.26690379 
939.30   1.26693211 
939.40   1.26695631 
939.50   1.26697639 
939.60   1.26699235 
939.70   1.26700418 
939.80   1.26701190 
939.90   1.26701549 
940.00   1.26701496 
940.10   1.26701031 
940.20   1.26700154 
940.30   1.26698865 
940.40   1.26697164 
940.50   1.26695051 
940.60   1.26692525 
940.70   1.26689587 
940.80   1.26686237 
940.90   1.26682475 
941.00   1.26678300 
941.10   1.26673713 
941.20   1.26668714 
941.30   1.26663302 
941.40   1.26657478 
941.50   1.26651241 
941.60   1.26644592 
941.70   1.26637530 
941.80   1.26630055 
941.90   1.26622168 
942.00   1.26613867 
942.10   1.26605154 
942.20   1.26596027 
942.30   1.26586488 
942.40   1.26576535 
942.50   1.26566168 
942.60   1.26555389 
942.70   1.26544196 
942.80   1.26532589 
942.90   1.26520568 
943.00   1.26508134 
943.10   1.16220454 
943.20   1.16316779 
943.30   1.16412601 
943.40   1.16507922 
943.50   1.16602743 
943.60   1.16697066 
943.70   1.16790891 
943.80   1.16884221 
943.90   1.16977055 
944.00   1.17069396 
944.10   1.17161245 
944.20   1.17252601 
944.30   1.17343468 
944.40   1.17433846 
944.50   1.17523735 
944.60   1.17613138 
944.70   1.17702055 
944.80   1.17790487 
944.90   1.17878435 
945.00   1.17965901 
945.10   1.18052886 
945.20   1.18139391 
945.30   1.18225416 
945.40   1.18310962 
945.50   1.18396032 
945.60   1.18480625 
945.70   1.18564744 
945.80   1.18648388 
945.90   1.18731559 
946.00   1.18814257 
946.10   1.18896485 
946.20   1.18978242 
946.30   1.19059530 
946.40   1.19140350 
946.50   1.19220703 
946.60   1.19300589 
946.70   1.19380010 
946.80   1.19458966 
946.90   1.19537459 
947.00   1.19615489 
947.10   1.19693057 
947.20   1.19770164 
947.30   1.19846811 
947.40   1.19923000 
947.50   1.19998729 
947.60   1.20074002 
947.70   1.20148818 
947.80   1.20223179 
947.90   1.20297084 
948.00   1.20370536 
948.10   1.20443535 
948.20   1.20516081 
948.30   1.20588175 
948.40   1.20659819 
948.50   1.20731014 
948.60   1.20801759 
948.70   1.20872055 
948.80   1.20941905 
948.90   1.21011307 
949.00   1.21080264 
949.10   1.21148775 
949.20   1.21216842 
949.30   1.21284465 
949.40   1.21351645 
949.50   1.21418383 
949.60   1.21484679 
949.70   1.21550535 
949.80   1.21615951 
949.90   1.21680927 
950.00   1.21745464 
950.10   1.21809564 
950.20   1.21873226 
950.30   1.21936452 
950.40   1.21999242 
950.50   1.22061596 
950.60   1.22123516 
950.70   1.22185002 
950.80   1.22246055 
950.90   1.22306676 
951.00   1.22366864 
951.10   1.22426621 
951.20   1.22485947 
951.30   1.22544843 
951.40   1.22603310 
951.50   1.22661348 
951.60   1.22718958 
951.70   1.22776140 
951.80   1.22832895 
951.90   1.22889224 
952.00   1.22945127 
952.10   1.23000604 
952.20   1.23055657 
952.30   1.23110286 
952.40   1.23164491 
952.50   1.23218273 
952.60   1.23271633 
952.70   1.23324571 
952.80   1.23377087 
952.90   1.23429183 
953.00   1.23480859 
953.10   1.23532114 
953.20   1.23582951 
953.30   1.23633368 
953.40   1.23683368 
953.50   1.23732950 
953.60   1.23782115 
953.70   1.23830863 
953.80   1.23879194 
953.90   1.23927110 
954.00   1.23974611 
954.10   1.24021697 
954.20   1.24068369 
954.30   1.24114627 
954.40   1.24160472 
954.50   1.24205903 
954.60   1.24250923 
954.70   1.24295530 
954.80   1.24339726 
954.90   1.24383510 
955.00   1.24426884 
955.10   1.24469848 
955.20   1.24512402 
955.30   1.24554546 
955.40   1.24596281 
955.50   1.24637608 
955.60   1.24678527 
955.70   1.24719038 
955.80   1.24759142 
955.90   1.24798838 
956.00   1.24838128 
956.10   1.24877012 
956.20   1.24915490 
956.30   1.24953562 
956.40   1.24991230 
956.50   1.25028492 
956.60   1.25065351 
956.70   1.25101805 
956.80   1.25137856 
956.90   1.25173503 
957.00   1.25208748 
957.10   1.25243589 
957.20   1.25278029 
957.30   1.25312067 
957.40   1.25345703 
957.50   1.25378937 
957.60   1.25411771 
957.70   1.25444204 
957.80   1.25476237 
957.90   1.25507869 
958.00   1.25539102 
958.10   1.25569936 
958.20   1.25600370 
958.30   1.25630406 
958.40   1.25660043 
958.50   1.25689281 
958.60   1.25718122 
958.70   1.25746565 
958.80   1.25774610 
958.90   1.25802258 
959.00   1.25829509 
959.10   1.25856364 
959.20   1.25882822 
959.30   1.25908884 
959.40   1.25934550 
959.50   1.25959820 
959.60   1.25984695 
959.70   1.26009175 
959.80   1.26033260 
959.90   1.26056950 
960.00   1.26080245 
960.10   1.26103146 
960.20   1.26125653 
960.30   1.26147766 
960.40   1.26169485 
960.50   1.26190811 
960.60   1.26211744 
960.70   1.26232283 
960.80   1.26252430 
960.90   1.26272184 
961.00   1.26291545 
961.10   1.26310514 
961.20   1.26329091 
961.30   1.26347276 
961.40   1.26365069 
961.50   1.26382470 
961.60   1.26399480 
961.70   1.26416099 
961.80   1.26432326 
961.90   1.26448162 
962.00   1.26463608 
962.10   1.26478662 
962.20   1.26493326 
962.30   1.26507600 
962.40   1.26521483 
962.50   1.26534976 
962.60   1.26548079 
962.70   1.26560792 
962.80   1.26573115 
962.90   1.26585049 
963.00   1.26596593 
963.10   1.26607747 
963.20   1.26618512 
963.30   1.26628887 
963.40   1.26638874 
963.50   1.26648471 
963.60   1.26657679 
963.70   1.26666498 
963.80   1.26674929 
963.90   1.26682970 
964.00   1.26690623 
964.10   1.26697887 
964.20   1.26704763 
964.30   1.26711250 
964.40   1.26717348 
964.50   1.26723059 
964.60   1.26728380 
964.70   1.26733314 
964.80   1.26737859 
964.90   1.26742016 
965.00   1.26745785 
965.10   1.26749166 
965.20   1.26752159 
965.30   1.26754763 
965.40   1.26756980 
965.50   1.26758808 
965.60   1.26760249 
965.70   1.26761301 
965.80   1.26761966 
965.90   1.26762242 
966.00   1.26762131 
966.10   1.26761631 
966.20   1.26760744 
966.30   1.26759468 
966.40   1.26757804 
966.50   1.26755753 
966.60   1.26753313 
966.70   1.26750486 
966.80   1.26747270 
966.90   1.26743666 
967.00   1.26739674 
967.10   1.26735293 
967.20   1.26730525 
967.30   1.26725368 
967.40   1.26719823 
967.50   1.26713890 
967.60   1.26707568 
967.70   1.26700857 
967.80   1.26693758 
967.90   1.26686270 
968.00   1.26678394 
968.10   1.26670129 
968.20   1.26661475 
968.30   1.26652432 
968.40   1.26643001 
968.50   1.26633180 
968.60   1.26622970 
968.70   1.26612370 
968.80   1.26601381 
968.90   1.26590003 
969.00   1.26578235 
969.10   1.26566078 
969.20   1.26553531 
969.30   1.26540593 
969.40   1.26527266 
969.50   1.26513549 
969.60   1.16035663 
969.70   1.16130221 
969.80   1.16224304 
969.90   1.16317914 
970.00   1.16411052 
970.10   1.16503720 
970.20   1.16595918 
970.30   1.16687648 
970.40   1.16778911 
970.50   1.16869707 
970.60   1.16960038 
970.70   1.17049905 
970.80   1.17139309 
970.90   1.17228251 
971.00   1.17316733 
971.10   1.17404754 
971.20   1.17492317 
971.30   1.17579422 
971.40   1.17666070 
971.50   1.17752262 
971.60   1.17838000 
971.70   1.17923284 
971.80   1.18008115 
971.90   1.18092494 
972.00   1.18176423 
972.10   1.18259901 
972.20   1.18342931 
972.30   1.18425513 
972.40   1.18507647 
972.50   1.18589336 
972.60   1.18670579 
972.70   1.18751378 
972.80   1.18831734 
972.90   1.18911647 
973.00   1.18991119 
973.10   1.19070150 
973.20   1.19148741 
973.30   1.19226893 
973.40   1.19304607 
973.50   1.19381884 
973.60   1.19458725 
973.70   1.19535130 
973.80   1.19611100 
973.90   1.19686636 
974.00   1.19761740 
974.10   1.19836411 
974.20   1.19910650 
974.30   1.19984459 
974.40   1.20057839 
974.50   1.20130789 
974.60   1.20203310 
974.70   1.20275405 
974.80   1.20347072 
974.90   1.20418314 
975.00   1.20489131 
975.10   1.20559523 
975.20   1.20629491 
975.30   1.20699036 
975.40   1.20768159 
975.50   1.20836861 
975.60   1.20905141 
975.70   1.20973002 
975.80   1.21040443 
975.90   1.21107466 
976.00   1.21174070 
976.10   1.21240258 
976.20   1.21306028 
976.30   1.21371383 
976.40   1.21436322 
976.50   1.21500847 
976.60   1.21564958 
976.70   1.21628655 
976.80   1.21691940 
976.90   1.21754813 
977.00   1.21817275 
977.10   1.21879326 
977.20   1.21940966 
977.30   1.22002198 
977.40   1.22063020 
977.50   1.22123434 
977.60   1.22183441 
977.70   1.22243040 
977.80   1.22302233 
977.90   1.22361020 
978.00   1.22419402 
978.10   1.22477379 
978.20   1.22534952 
978.30   1.22592122 
978.40   1.22648888 
978.50   1.22705252 
978.60   1.22761214 
978.70   1.22816775 
978.80   1.22871935 
978.90   1.22926695 
979.00   1.22981055 
979.10   1.23035016 
979.20   1.23088578 
979.30   1.23141742 
979.40   1.23194509 
979.50   1.23246878 
979.60   1.23298851 
979.70   1.23350428 
979.80   1.23401609 
979.90   1.23452395 
980.00   1.23502786 
980.10   1.23552784 
980.20   1.23602387 
980.30   1.23651598 
980.40   1.23700415 
980.50   1.23748841 
980.60   1.23796874 
980.70   1.23844517 
980.80   1.23891768 
980.90   1.23938629 
981.00   1.23985100 
981.10   1.24031181 
981.20   1.24076874 
981.30   1.24122177 
981.40   1.24167093 
981.50   1.24211620 
981.60   1.24255760 
981.70   1.24299513 
981.80   1.24342879 
981.90   1.24385860 
982.00   1.24428454 
982.10   1.24470663 
982.20   1.24512487 
982.30   1.24553926 
982.40   1.24594981 
982.50   1.24635653 
982.60   1.24675940 
982.70   1.24715845 
982.80   1.24755367 
982.90   1.24794506 
983.00   1.24833264 
983.10   1.24871640 
983.20   1.24909634 
983.30   1.24947247 
983.40   1.24984480 
983.50   1.25021333 
983.60   1.25057806 
983.70   1.25093899 
983.80   1.25129612 
983.90   1.25164947 
984.00   1.25199903 
984.10   1.25234481 
984.20   1.25268681 
984.30   1.25302503 
984.40   1.25335947 
984.50   1.25369015 
984.60   1.25401705 
984.70   1.25434020 
984.80   1.25465958 
984.90   1.25497520 
985.00   1.25528706 
985.10   1.25559517 
985.20   1.25589953 
985.30   1.25620015 
985.40   1.25649701 
985.50   1.25679014 
985.60   1.25707952 
985.70   1.25736516 
985.80   1.25764708 
985.90   1.25792525 
986.00   1.25819970 
986.10   1.25847042 
986.20   1.25873742 
986.30   1.25900069 
986.40   1.25926024 
986.50   1.25951608 
986.60   1.25976819 
986.70   1.26001660 
986.80   1.26026129 
986.90   1.26050227 
987.00   1.26073955 
987.10   1.26097312 
987.20   1.26120299 
987.30   1.26142915 
987.40   1.26165162 
987.50   1.26187039 
987.60   1.26208547 
987.70   1.26229685 
987.80   1.26250454 
987.90   1.26270854 
988.00   1.26290885 
988.10   1.26310548 
988.20   1.26329842 
988.30   1.26348768 
988.40   1.26367326 
988.50   1.26385516 
988.60   1.26403338 
988.70   1.26420793 
988.80   1.26437880 
988.90   1.26454599 
989.00   1.26470952 
989.10   1.26486938 
989.20   1.26502556 
989.30   1.26517808 
989.40   1.26532693 
989.50   1.26547212 
989.60   1.26561364 
989.70   1.26575150 
989.80   1.26588570 
989.90   1.26601624 
990.00   1.26614312 
990.10   1.26626635 
990.20   1.26638591 
990.30   1.26650182 
990.40   1.26661408 
990.50   1.26672268 
990.60   1.26682763 
990.70   1.26692892 
990.80   1.26702657 
990.90   1.26712057 
991.00   1.26721091 
991.10   1.26729761 
991.20   1.26738066 
991.30   1.26746006 
991.40   1.26753581 
991.50   1.26760792 
991.60   1.26767639 
991.70   1.26774121 
991.80   1.26780238 
991.90   1.26785992 
992.00   1.26791380 
992.10   1.26796405 
992.20   1.26801066 
992.30   1.26805362 
992.40   1.26809294 
992.50   1.26812862 
992.60   1.26816066 
992.70   1.26818906 
992.80   1.26821381 
992.90   1.26823493 
993.00   1.26825241 
993.10   1.26826625 
993.20   1.26827645 
993.30   1.26828301 
993.40   1.26828593 
993.50   1.26828521 
993.60   1.26828085 
993.70   1.26827286 
993.80   1.26826122 
993.90   1.26824594 
994.00   1.26822702 
994.10   1.26820447 
994.20   1.26817827 
994.30   1.26814843 
994.40   1.26811496 
994.50   1.26807784 
994.60   1.26803708 
994.70   1.26799268 
994.80   1.26794463 
994.90   1.26789295 
995.00   1.26783762 
995.10   1.26777865 
995.20   1.26771603 
995.30   1.26764977 
995.40   1.26757987 
995.50   1.26750632 
995.60   1.26742912 
995.70   1.26734828 
995.80   1.26726379 
995.90   1.26717565 
996.00   1.26708386 
996.10   1.26698843 
996.20   1.26688934 
996.30   1.26678660 
996.40   1.26668021 
996.50   1.26657016 
996.60   1.26645646 
996.70   1.26633911 
996.80   1.26621810 
996.90   1.26609343 
997.00   1.26596510 
997.10   1.26583312 
997.20   1.26569747 
997.30   1.26555816 
997.40   1.26541519 
997.50   1.26526856 
997.60   1.26511826 
997.70   1.26496429 
997.80   1.15911882 
997.90   1.16004226 
998.00   1.16096125 
998.10   1.16187580 
998.20   1.16278592 
998.30   1.16369162 
998.40   1.16459291 
998.50   1.16548981 
998.60   1.16638231 
998.70   1.16727043 
998.80   1.16815419 
998.90   1.16903359 
999.00   1.16990863 
999.10   1.17077934 
999.20   1.17164572 
999.30   1.17250778 
999.40   1.17336553 
999.50   1.17421897 
999.60   1.17506813 
999.70   1.17591300 
999.80   1.17675360 
999.90   1.17758994 
1000.00   1.17842202 
1000.10   1.17924985 
1000.20   1.18007345 
1000.30   1.18089282 
1000.40   1.18170797 
1000.50   1.18251891 
1000.60   1.18332565 
1000.70   1.18412819 
1000.80   1.18492655 
1000.90   1.18572074 
1001.00   1.18651075 
1001.10   1.18729661 
1001.20   1.18807831 
1001.30   1.18885587 
1001.40   1.18962929 
1001.50   1.19039859 
1001.60   1.19116377 
1001.70   1.19192484 
1001.80   1.19268181 
1001.90   1.19343467 
1002.00   1.19418346 
1002.10   1.19492816 
1002.20   1.19566879 
1002.30   1.19640535 
1002.40   1.19713786 
1002.50   1.19786631 
1002.60   1.19859073 
1002.70   1.19931111 
1002.80   1.20002746 
1002.90   1.20073979 
1003.00   1.20144811 
1003.10   1.20215242 
1003.20   1.20285273 
1003.30   1.20354905 
1003.40   1.20424138 
1003.50   1.20492973 
1003.60   1.20561412 
1003.70   1.20629453 
1003.80   1.20697099 
1003.90   1.20764350 
1004.00   1.20831206 
1004.10   1.20897669 
1004.20   1.20963738 
1004.30   1.21029414 
1004.40   1.21094699 
1004.50   1.21159593 
1004.60   1.21224095 
1004.70   1.21288208 
1004.80   1.21351931 
1004.90   1.21415266 
1005.00   1.21478212 
1005.10   1.21540770 
1005.20   1.21602942 
1005.30   1.21664727 
1005.40   1.21726127 
1005.50   1.21787141 
1005.60   1.21847770 
1005.70   1.21908016 
1005.80   1.21967878 
1005.90   1.22027357 
1006.00   1.22086453 
1006.10   1.22145168 
1006.20   1.22203501 
1006.30   1.22261454 
1006.40   1.22319027 
1006.50   1.22376219 
1006.60   1.22433033 
1006.70   1.22489468 
1006.80   1.22545525 
1006.90   1.22601205 
1007.00   1.22656507 
1007.10   1.22711433 
1007.20   1.22765983 
1007.30   1.22820157 
1007.40   1.22873957 
1007.50   1.22927381 
1007.60   1.22980432 
1007.70   1.23033109 
1007.80   1.23085413 
1007.90   1.23137345 
1008.00   1.23188904 
1008.10   1.23240092 
1008.20   1.23290908 
1008.30   1.23341354 
1008.40   1.23391429 
1008.50   1.23441135 
1008.60   1.23490471 
1008.70   1.23539438 
1008.80   1.23588037 
1008.90   1.23636267 
1009.00   1.23684130 
1009.10   1.23731626 
1009.20   1.23778755 
1009.30   1.23825517 
1009.40   1.23871914 
1009.50   1.23917945 
1009.60   1.23963610 
1009.70   1.24008912 
1009.80   1.24053848 
1009.90   1.24098421 
1010.00   1.24142630 
1010.10   1.24186476 
1010.20   1.24229959 
1010.30   1.24273080 
1010.40   1.24315839 
1010.50   1.24358236 
1010.60   1.24400272 
1010.70   1.24441947 
1010.80   1.24483261 
1010.90   1.24524215 
1011.00   1.24564810 
1011.10   1.24605044 
1011.20   1.24644920 
1011.30   1.24684437 
1011.40   1.24723595 
1011.50   1.24762396 
1011.60   1.24800838 
1011.70   1.24838923 
1011.80   1.24876651 
1011.90   1.24914022 
1012.00   1.24951037 
1012.10   1.24987695 
1012.20   1.25023998 
1012.30   1.25059945 
1012.40   1.25095537 
1012.50   1.25130773 
1012.60   1.25165656 
1012.70   1.25200183 
1012.80   1.25234357 
1012.90   1.25268177 
1013.00   1.25301644 
1013.10   1.25334757 
1013.20   1.25367518 
1013.30   1.25399926 
1013.40   1.25431981 
1013.50   1.25463685 
1013.60   1.25495036 
1013.70   1.25526036 
1013.80   1.25556685 
1013.90   1.25586983 
1014.00   1.25616929 
1014.10   1.25646526 
1014.20   1.25675772 
1014.30   1.25704668 
1014.40   1.25733214 
1014.50   1.25761411 
1014.60   1.25789258 
1014.70   1.25816756 
1014.80   1.25843906 
1014.90   1.25870706 
1015.00   1.25897159 
1015.10   1.25923263 
1015.20   1.25949019 
1015.30   1.25974427 
1015.40   1.25999488 
1015.50   1.26024202 
1015.60   1.26048568 
1015.70   1.26072587 
1015.80   1.26096260 
1015.90   1.26119586 
1016.00   1.26142565 
1016.10   1.26165199 
1016.20   1.26187486 
1016.30   1.26209428 
1016.40   1.26231024 
1016.50   1.26252275 
1016.60   1.26273180 
1016.70   1.26293741 
1016.80   1.26313956 
1016.90   1.26333826 
1017.00   1.26353352 
1017.10   1.26372534 
1017.20   1.26391371 
1017.30   1.26409864 
1017.40   1.26428013 
1017.50   1.26445819 
1017.60   1.26463280 
1017.70   1.26480398 
1017.80   1.26497173 
1017.90   1.26513604 
1018.00   1.26529693 
1018.10   1.26545438 
1018.20   1.26560840 
1018.30   1.26575900 
1018.40   1.26590617 
1018.50   1.26604991 
1018.60   1.26619023 
1018.70   1.26632713 
1018.80   1.26646061 
1018.90   1.26659066 
1019.00   1.26671730 
1019.10   1.26684052 
1019.20   1.26696032 
1019.30   1.26707670 
1019.40   1.26718967 
1019.50   1.26729922 
1019.60   1.26740536 
1019.70   1.26750809 
1019.80   1.26760740 
1019.90   1.26770331 
1020.00   1.26779580 
1020.10   1.26788488 
1020.20   1.26797055 
1020.30   1.26805282 
1020.40   1.26813168 
1020.50   1.26820713 
1020.60   1.26827917 
1020.70   1.26834781 
1020.80   1.26841304 
1020.90   1.26847487 
1021.00   1.26853329 
1021.10   1.26858831 
1021.20   1.26863993 
1021.30   1.26868814 
1021.40   1.26873295 
1021.50   1.26877436 
1021.60   1.26881237 
1021.70   1.26884697 
1021.80   1.26887817 
1021.90   1.26890598 
1022.00   1.26893038 
1022.10   1.26895138 
1022.20   1.26896898 
1022.30   1.26898318 
1022.40   1.26899398 
1022.50   1.26900138 
1022.60   1.26900538 
1022.70   1.26900598 
1022.80   1.26900318 
1022.90   1.26899698 
1023.00   1.26898737 
1023.10   1.26897437 
1023.20   1.26895797 
1023.30   1.26893817 
1023.40   1.26891497 
1023.50   1.26888836 
1023.60   1.26885836 
1023.70   1.26882495 
1023.80   1.26878815 
1023.90   1.26874794 
1024.00   1.26870433 
1024.10   1.26865731 
1024.20   1.26860690 
1024.30   1.26855308 
1024.40   1.26849585 
1024.50   1.26843523 
1024.60   1.26837119 
1024.70   1.26830376 
1024.80   1.26823291 
1024.90   1.26815866 
1025.00   1.26808101 
1025.10   1.26799994 
1025.20   1.26791547 
1025.30   1.26782759 
1025.40   1.26773630 
1025.50   1.26764160 
1025.60   1.26754349 
1025.70   1.26744196 
1025.80   1.26733703 
1025.90   1.26722868 
1026.00   1.26711691 
1026.10   1.26700174 
1026.20   1.26688314 
1026.30   1.26676113 
1026.40   1.26663570 
1026.50   1.26650685 
1026.60   1.26637458 
1026.70   1.26623888 
1026.80   1.26609977 
1026.90   1.26595723 
1027.00   1.26581127 
1027.10   1.26566188 
1027.20   1.26550907 
1027.30   1.26535282 
1027.40   1.26519315 
1027.50   1.26503005 
1027.60   1.26486351 
1027.70   1.26469354 
1027.80   1.26452014 
1027.90   1.26434329 
1028.00   1.26416302 
1028.10   1.26397930 
1028.20   1.26379214 
1028.30   1.26360154 
1028.40   1.26340749 
1028.50   1.26321000 
1028.60   1.26300906 
1028.70   1.26280468 
1028.80   1.26259684 
1028.90   1.26238555 
1029.00   1.26217081 
1029.10   1.26195261 
1029.20   1.26173095 
1029.30   1.26150584 
1029.40   1.26127726 
1029.50   1.26104522 
1029.60   1.26080972 
1029.70   1.26057075 
1029.80   1.26032831 
1029.90   1.26008240 
1030.00   1.25983302 
1030.10   1.25958016 
1030.20   1.25932382 
1030.30   1.25906401 
1030.40   1.25880071 
1030.50   1.25853393 
1030.60   1.25826367 
1030.70   1.25798992 
1030.80   1.25771268 
1030.90   1.25743194 
1031.00   1.25714771 
1031.10   1.25685998 
1031.20   1.25656876 
1031.30   1.25627403 
1031.40   1.25597580 
1031.50   1.25567406 
1031.60   1.25536881 
1031.70   1.25506005 
1031.80   1.25474777 
1031.90   1.25443198 
1032.00   1.25411266 
1032.10   1.25378983 
1032.20   1.25346346 
1032.30   1.25313357 
1032.40   1.25280015 
1032.50   1.25246320 
1032.60   1.25212271 
1032.70   1.25177868 
1032.80   1.25143111 
1032.90   1.25107999 
1033.00   1.25072532 
1033.10   1.25036710 
1033.20   1.25000533 
1033.30   1.24964000 
1033.40   1.24927111 
1033.50   1.24889866 
1033.60   1.24852264 
1033.70   1.24814305 
1033.80   1.24775988 
1033.90   1.24737314 
1034.00   1.24698282 
1034.10   1.24658892 
1034.20   1.24619143 
1034.30   1.24579034 
1034.40   1.24538567 
1034.50   1.24497740 
1034.60   1.24456552 
1034.70   1.24415004 
1034.80   1.24373096 
1034.90   1.24330826 
1035.00   1.24288195 
1035.10   1.24245202 
1035.20   1.24201846 
1035.30   1.24158128 
1035.40   1.24114047 
1035.50   1.24069603 
1035.60   1.24024794 
1035.70   1.23979622 
1035.80   1.23934085 
1035.90   1.23888182 
1036.00   1.23841915 
1036.10   1.23795281 
1036.20   1.23748282 
1036.30   1.23700915 
1036.40   1.23653182 
1036.50   1.23605081 
1036.60   1.23556612 
1036.70   1.23507775 
1036.80   1.23458569 
1036.90   1.23408994 
1037.00   1.23359049 
1037.10   1.23308734 
1037.20   1.23258048 
1037.30   1.23206991 
1037.40   1.23155563 
1037.50   1.23103763 
1037.60   1.23051590 
1037.70   1.22999045 
1037.80   1.22946126 
1037.90   1.22892833 
1038.00   1.22839166 
1038.10   1.22785124 
1038.20   1.22730706 
1038.30   1.22675913 
1038.40   1.22620743 
1038.50   1.22565197 
1038.60   1.22509273 
1038.70   1.22452971 
1038.80   1.22396291 
1038.90   1.22339232 
1039.00   1.22281793 
1039.10   1.22223975 
1039.20   1.22165775 
1039.30   1.22107195 
1039.40   1.22048233 
1039.50   1.21988889 
1039.60   1.21929162 
1039.70   1.21869052 
1039.80   1.21808558 
1039.90   1.21747680 
1040.00   1.21686416 
1040.10   1.21624767 
1040.20   1.21562732 
1040.30   1.21500309 
1040.40   1.21437500 
1040.50   1.21374302 
1040.60   1.21310716 
1040.70   1.21246741 
1040.80   1.21182376 
1040.90   1.21117620 
1041.00   1.21052474 
1041.10   1.20986935 
1041.20   1.20921005 
1041.30   1.20854681 
1041.40   1.20787964 
1041.50   1.20720852 
1041.60   1.20653345 
1041.70   1.20585443 
1041.80   1.20517145 
1041.90   1.20448450 
1042.00   1.20379357 
1042.10   1.20309865 
1042.20   1.20239975 
1042.30   1.20169685 
1042.40   1.20098995 
1042.50   1.20027903 
1042.60   1.19956410 
1042.70   1.19884514 
1042.80   1.19812215 
1042.90   1.19739512 
1043.00   1.19666404 
1043.10   1.19592891 
1043.20   1.19518971 
1043.30   1.19444645 
1043.40   1.19369910 
1043.50   1.19294768 
1043.60   1.19219216 
1043.70   1.19143254 
1043.80   1.19066881 
1043.90   1.18990096 
1044.00   1.18912899 
1044.10   1.18835289 
1044.20   1.18757265 
1044.30   1.18678826 
1044.40   1.18599971 
1044.50   1.18520700 
1044.60   1.18441011 
1044.70   1.18360904 
1044.80   1.18280378 
1044.90   1.18199433 
1045.00   1.18118066 
1045.10   1.18036278 
1045.20   1.17954068 
1045.30   1.17871433 
1045.40   1.17788375 
1045.50   1.17704892 
1045.60   1.17620982 
1045.70   1.17536646 
1045.80   1.17451881 
1045.90   1.17366688 
1046.00   1.17281065 
1046.10   1.17195011 
1046.20   1.17108526 
1046.30   1.17021607 
1046.40   1.16934256 
1046.50   1.16846469 
1046.60   1.16758248 
1046.70   1.16669589 
1046.80   1.16580493 
1046.90   1.16490959 
1047.00   1.16400985 
1047.10   1.16310571 
1047.20   1.16219715 
1047.30   1.16128416 
1047.40   1.16036673 
1047.50   1.15944486 
1047.60   1.15851853 
1047.70   1.15758774 
1047.80   1.15665246 
1047.90   1.15571269 
1048.00   1.15476842 
1048.10   1.15381964 
1048.20   1.15286634 
1048.30   1.15190850 
1048.40   1.15094612 
1048.50   1.14997918 
1048.60   1.14900766 
1048.70   1.14803157 
1048.80   1.14705089 
1048.90   1.14606560 
1049.00   1.14507570 
1049.10   1.14408117 
1049.20   1.14308200 
1049.30   1.14207817 
1049.40   1.14106969 
1049.50   1.14005652 
1049.60   1.13903867 
1049.70   1.13801611 
1049.80   1.13698885 
1049.90   1.13595685 
1050.00   1.13492011 
